%OpenBCI Raw EEG Data
%Number of channels = 8
%Sample Rate = 250.0 Hz
%First Column = SampleIndex
%Last Column = Timestamp 
%Other Columns = EEG data in microvolts followed by Accel Data (in G) interleaved with Aux Data
0, 0.00, 0.00, 0.00, 0.00, 0.00, 0.00, 0.00, 0.00, 0.150, 0.320, 0.978, 18:40:58.567, 1577144458567
1, -187500.02, 84325.55, 86766.43, 103717.55, 101020.80, 90534.46, -187500.02, -187500.02, 0.000, 0.000, 0.000, 18:40:59.048, 1577144459048
2, -187500.02, 83191.60, 85554.23, 102502.05, 99828.05, 89605.86, -187500.02, -187500.02, 0.000, 0.000, 0.000, 18:40:59.048, 1577144459048
3, -187500.02, 83308.55, 85759.75, 102720.57, 99947.68, 89109.56, -187500.02, -187500.02, 0.000, 0.000, 0.000, 18:40:59.048, 1577144459048
4, -187500.02, 84471.40, 87035.03, 104005.48, 101157.58, 89775.24, -187500.02, -187500.02, 0.000, 0.000, 0.000, 18:40:59.049, 1577144459049
5, -187500.02, 84513.89, 86987.76, 103942.41, 101218.15, 90562.36, -187500.02, -187500.02, 0.000, 0.000, 0.000, 18:40:59.049, 1577144459049
6, -187500.02, 83311.52, 85674.77, 102621.39, 99956.69, 89781.63, -187500.02, -187500.02, 0.000, 0.000, 0.000, 18:40:59.049, 1577144459049
7, -187500.02, 83181.55, 85613.19, 102571.66, 99818.84, 89109.48, -187500.02, -187500.02, 0.000, 0.000, 0.000, 18:40:59.049, 1577144459049
8, -187500.02, 84275.77, 86828.55, 103798.91, 100948.25, 89586.88, -187500.02, -187500.02, 0.148, 0.316, 0.980, 18:40:59.049, 1577144459049
9, -187500.02, 84683.56, 87183.85, 104142.95, 101385.34, 90542.78, -187500.02, -187500.02, 0.000, 0.000, 0.000, 18:40:59.049, 1577144459049
10, -187500.02, 83485.55, 85848.91, 102797.05, 100138.78, 89980.32, -187500.02, -187500.02, 0.000, 0.000, 0.000, 18:40:59.049, 1577144459049
11, -187500.02, 83101.23, 85508.83, 102466.98, 99734.40, 89154.63, -187500.02, -187500.02, 0.000, 0.000, 0.000, 18:40:59.049, 1577144459049
12, -187500.02, 84048.01, 86580.95, 103553.28, 100711.97, 89421.03, -187500.02, -187500.02, 0.000, 0.000, 0.000, 18:40:59.049, 1577144459049
13, -187500.02, 84755.13, 87284.27, 104249.70, 101473.56, 90445.41, -187500.02, -187500.02, 0.000, 0.000, 0.000, 18:40:59.049, 1577144459049
14, -187500.02, 83692.41, 86072.63, 103021.13, 100364.41, 90179.72, -187500.02, -187500.02, 0.000, 0.000, 0.000, 18:40:59.049, 1577144459049
15, -187500.02, 83071.73, 85466.05, 102418.55, 99703.95, 89235.25, -187500.02, -187500.02, 0.000, 0.000, 0.000, 18:40:59.049, 1577144459049
16, -187500.02, 83824.36, 86339.45, 103304.71, 100485.59, 89301.43, -187500.02, -187500.02, 0.000, 0.000, 0.000, 18:40:59.049, 1577144459049
17, -187500.02, 84773.03, 87325.27, 104288.61, 101485.37, 90308.55, -187500.02, -187500.02, 0.000, 0.000, 0.000, 18:40:59.049, 1577144459049
18, -187500.02, 83926.51, 86325.63, 103269.28, 100603.43, 90350.09, -187500.02, -187500.02, 0.154, 0.312, 0.978, 18:40:59.049, 1577144459049
19, -187500.02, 83069.16, 85453.11, 102400.13, 99705.90, 89343.85, -187500.02, -187500.02, 0.000, 0.000, 0.000, 18:40:59.049, 1577144459049
20, -187500.02, 83607.32, 86102.31, 103061.74, 100256.31, 89197.09, -187500.02, -187500.02, 0.000, 0.000, 0.000, 18:40:59.049, 1577144459049
21, -187500.02, 84722.23, 87291.45, 104254.50, 101435.23, 90130.63, -187500.02, -187500.02, 0.000, 0.000, 0.000, 18:40:59.049, 1577144459049
22, -187500.02, 84169.02, 86599.46, 103543.47, 100863.70, 90485.76, -187500.02, -187500.02, 0.000, 0.000, 0.000, 18:40:59.050, 1577144459050
23, -187500.02, 83125.51, 85502.86, 102445.30, 99766.00, 89479.35, -187500.02, -187500.02, 0.000, 0.000, 0.000, 18:40:59.050, 1577144459050
24, -187500.02, 83420.95, 85896.74, 102851.66, 100077.20, 89141.30, -187500.02, -187500.02, 0.000, 0.000, 0.000, 18:40:59.050, 1577144459050
25, -187500.02, 84596.88, 87171.09, 104132.51, 101302.70, 89937.25, -187500.02, -187500.02, 0.000, 0.000, 0.000, 18:40:59.050, 1577144459050
26, -187500.02, 84378.03, 86839.56, 103782.14, 101086.16, 90556.15, -187500.02, -187500.02, 0.000, 0.000, 0.000, 18:40:59.050, 1577144459050
27, -187500.02, 83208.59, 85581.98, 102519.76, 99853.42, 89636.37, -187500.02, -187500.02, 0.000, 0.000, 0.000, 18:40:59.050, 1577144459050
28, -187500.02, 83262.39, 85720.28, 102670.48, 99913.28, 89104.82, -187500.02, -187500.02, 0.156, 0.312, 0.982, 18:40:59.050, 1577144459050
29, -187500.02, 84400.85, 86972.91, 103932.95, 101096.78, 89713.48, -187500.02, -187500.02, 0.000, 0.000, 0.000, 18:40:59.050, 1577144459050
30, -187500.02, 84549.29, 87038.85, 103984.18, 101257.45, 90552.28, -187500.02, -187500.02, 0.000, 0.000, 0.000, 18:40:59.050, 1577144459050
31, -187500.02, 83358.23, 85724.08, 102662.14, 100007.98, 89835.97, -187500.02, -187500.02, 0.000, 0.000, 0.000, 18:40:59.050, 1577144459050
32, -187500.02, 83166.16, 85592.56, 102541.93, 99809.66, 89131.60, -187500.02, -187500.02, 0.000, 0.000, 0.000, 18:40:59.051, 1577144459051
33, -187500.02, 84210.75, 86759.05, 103720.09, 100886.12, 89533.02, -187500.02, -187500.02, 0.000, 0.000, 0.000, 18:40:59.051, 1577144459051
34, -187500.02, 84705.30, 87216.21, 104165.81, 101412.56, 90502.91, -187500.02, -187500.02, 0.000, 0.000, 0.000, 18:40:59.051, 1577144459051
35, -187500.02, 83547.58, 85919.21, 102856.29, 100205.23, 90038.19, -187500.02, -187500.02, 0.000, 0.000, 0.000, 18:40:59.051, 1577144459051
36, -187500.02, 83099.73, 85507.47, 102453.15, 99737.99, 89184.93, -187500.02, -187500.02, 0.000, 0.000, 0.000, 18:40:59.051, 1577144459051
37, -187500.02, 83984.28, 86516.27, 103473.44, 100652.67, 89388.63, -187500.02, -187500.02, 0.000, 0.000, 0.000, 18:40:59.051, 1577144459051
38, -187500.02, 84771.31, 87309.58, 104260.36, 101477.79, 90400.47, -187500.02, -187500.02, 0.158, 0.312, 0.982, 18:40:59.051, 1577144459051
39, -187500.02, 83764.92, 86149.68, 103082.30, 100428.17, 90211.99, -187500.02, -187500.02, 0.000, 0.000, 0.000, 18:40:59.051, 1577144459051
40, -187500.02, 83072.91, 85465.78, 102404.13, 99710.16, 89261.82, -187500.02, -187500.02, 0.000, 0.000, 0.000, 18:40:59.051, 1577144459051
41, -187500.02, 83771.16, 86284.30, 103236.94, 100434.79, 89275.34, -187500.02, -187500.02, 0.000, 0.000, 0.000, 18:40:59.051, 1577144459051
42, -187500.02, 84758.52, 87316.38, 104268.41, 101470.13, 90249.14, -187500.02, -187500.02, 0.000, 0.000, 0.000, 18:40:59.051, 1577144459051
43, -187500.02, 83973.91, 86380.23, 103314.07, 100655.89, 90369.24, -187500.02, -187500.02, 0.000, 0.000, 0.000, 18:40:59.051, 1577144459051
44, -187500.02, 83087.71, 85467.08, 102403.77, 99722.22, 89375.26, -187500.02, -187500.02, 0.000, 0.000, 0.000, 18:40:59.051, 1577144459051
45, -187500.02, 83564.14, 86051.30, 102999.85, 100210.60, 89170.59, -187500.02, -187500.02, 0.000, 0.000, 0.000, 18:40:59.051, 1577144459051
46, -187500.02, 84685.13, 87247.44, 104198.87, 101372.73, 90048.38, -187500.02, -187500.02, 0.000, 0.000, 0.000, 18:40:59.051, 1577144459051
47, -187500.02, 84222.69, 86655.79, 103588.73, 100912.36, 90495.21, -187500.02, -187500.02, 0.000, 0.000, 0.000, 18:40:59.051, 1577144459051
48, -187500.02, 83145.96, 85521.48, 102453.51, 99794.37, 89521.66, -187500.02, -187500.02, 0.158, 0.310, 0.978, 18:40:59.051, 1577144459051
49, -187500.02, 83385.99, 85855.64, 102799.96, 100040.52, 89136.09, -187500.02, -187500.02, 0.000, 0.000, 0.000, 18:40:59.051, 1577144459051
50, -187500.02, 84560.71, 87133.31, 104085.79, 101262.32, 89879.54, -187500.02, -187500.02, 0.000, 0.000, 0.000, 18:40:59.051, 1577144459051
51, -187500.02, 84438.14, 86903.83, 103840.86, 101146.53, 90564.37, -187500.02, -187500.02, 0.000, 0.000, 0.000, 18:40:59.051, 1577144459051
52, -187500.02, 83248.27, 85614.06, 102547.21, 99896.24, 89697.19, -187500.02, -187500.02, 0.000, 0.000, 0.000, 18:40:59.051, 1577144459051
53, -187500.02, 83242.23, 85680.73, 102625.75, 99880.24, 89110.37, -187500.02, -187500.02, 0.000, 0.000, 0.000, 18:40:59.051, 1577144459051
54, -187500.02, 84355.99, 86912.23, 103869.29, 101038.60, 89655.28, -187500.02, -187500.02, 0.000, 0.000, 0.000, 18:40:59.051, 1577144459051
55, -187500.02, 84595.05, 87082.10, 104027.27, 101302.53, 90539.85, -187500.02, -187500.02, 0.000, 0.000, 0.000, 18:40:59.052, 1577144459052
56, -187500.02, 83387.67, 85746.70, 102681.79, 100030.45, 89869.25, -187500.02, -187500.02, 0.000, 0.000, 0.000, 18:40:59.052, 1577144459052
57, -187500.02, 83145.94, 85558.01, 102503.38, 99777.38, 89133.44, -187500.02, -187500.02, 0.000, 0.000, 0.000, 18:40:59.052, 1577144459052
58, -187500.02, 84153.51, 86688.96, 103648.63, 100824.47, 89499.35, -187500.02, -187500.02, 0.154, 0.310, 0.982, 18:40:59.052, 1577144459052
59, -187500.02, 84721.94, 87237.31, 104189.81, 101438.36, 90493.16, -187500.02, -187500.02, 0.000, 0.000, 0.000, 18:40:59.052, 1577144459052
60, -187500.02, 83582.67, 85952.31, 102889.32, 100242.66, 90078.13, -187500.02, -187500.02, 0.000, 0.000, 0.000, 18:40:59.052, 1577144459052
61, -187500.02, 83073.56, 85467.62, 102412.31, 99701.61, 89182.74, -187500.02, -187500.02, 0.000, 0.000, 0.000, 18:40:59.052, 1577144459052
62, -187500.02, 83918.82, 86435.84, 103394.05, 100576.63, 89338.27, -187500.02, -187500.02, 0.000, 0.000, 0.000, 18:40:59.052, 1577144459052
63, -187500.02, 84765.48, 87301.80, 104255.48, 101469.41, 90351.96, -187500.02, -187500.02, 0.000, 0.000, 0.000, 18:40:59.052, 1577144459052
64, -187500.02, 83829.16, 86210.09, 103146.23, 100486.04, 90262.40, -187500.02, -187500.02, 0.000, 0.000, 0.000, 18:40:59.052, 1577144459052
65, -187500.02, 83070.70, 85448.01, 102390.09, 99698.37, 89280.48, -187500.02, -187500.02, 0.000, 0.000, 0.000, 18:40:59.052, 1577144459052
66, -187500.02, 83704.60, 86197.27, 103152.56, 100355.28, 89232.63, -187500.02, -187500.02, 0.000, 0.000, 0.000, 18:40:59.052, 1577144459052
67, -187500.02, 84742.48, 87291.25, 104247.37, 101448.28, 90198.85, -187500.02, -187500.02, 0.000, 0.000, 0.000, 18:40:59.052, 1577144459052
68, -187500.02, 84041.20, 86440.27, 103377.73, 100721.43, 90413.45, -187500.02, -187500.02, 0.152, 0.312, 0.982, 18:40:59.052, 1577144459052
69, -187500.02, 83095.89, 85457.58, 102396.16, 99723.94, 89414.57, -187500.02, -187500.02, 0.000, 0.000, 0.000, 18:40:59.052, 1577144459052
70, -187500.02, 83515.19, 85983.42, 102935.13, 100151.62, 89167.61, -187500.02, -187500.02, 0.000, 0.000, 0.000, 18:40:59.053, 1577144459053
71, -187500.02, 84650.21, 87208.50, 104166.30, 101348.93, 90010.13, -187500.02, -187500.02, 0.000, 0.000, 0.000, 18:40:59.053, 1577144459053
72, -187500.02, 84275.20, 86705.27, 103642.73, 100968.33, 90517.68, -187500.02, -187500.02, 0.000, 0.000, 0.000, 18:40:59.053, 1577144459053
73, -187500.02, 83171.91, 85526.38, 102460.30, 99801.85, 89573.74, -187500.02, -187500.02, 0.000, 0.000, 0.000, 18:40:59.053, 1577144459053
74, -187500.02, 83335.08, 85784.25, 102729.71, 99971.99, 89120.85, -187500.02, -187500.02, 0.000, 0.000, 0.000, 18:40:59.053, 1577144459053
75, -187500.02, 84489.08, 87048.89, 104000.72, 101169.45, 89793.64, -187500.02, -187500.02, 0.000, 0.000, 0.000, 18:40:59.053, 1577144459053
76, -187500.02, 84474.34, 86935.95, 103870.01, 101168.17, 90544.25, -187500.02, -187500.02, 0.000, 0.000, 0.000, 18:40:59.053, 1577144459053
77, -187500.02, 83278.44, 85632.52, 102558.41, 99915.67, 89746.85, -187500.02, -187500.02, 0.000, 0.000, 0.000, 18:40:59.053, 1577144459053
78, -187500.02, 83198.98, 85628.77, 102565.96, 99834.09, 89125.34, -187500.02, -187500.02, 0.158, 0.312, 0.982, 18:40:59.053, 1577144459053
79, -187500.02, 84298.73, 86853.09, 103801.34, 100976.51, 89626.05, -187500.02, -187500.02, 0.000, 0.000, 0.000, 18:40:59.053, 1577144459053
80, -187500.02, 84650.05, 87147.26, 104082.37, 101352.93, 90552.41, -187500.02, -187500.02, 0.000, 0.000, 0.000, 18:40:59.053, 1577144459053
81, -187500.02, 83451.38, 85813.41, 102736.52, 100096.72, 89950.59, -187500.02, -187500.02, 0.000, 0.000, 0.000, 18:40:59.053, 1577144459053
82, -187500.02, 83119.92, 85535.63, 102468.59, 99758.00, 89174.18, -187500.02, -187500.02, 0.000, 0.000, 0.000, 18:40:59.053, 1577144459053
83, -187500.02, 84084.20, 86624.88, 103570.63, 100753.88, 89473.07, -187500.02, -187500.02, 0.000, 0.000, 0.000, 18:40:59.053, 1577144459053
84, -187500.02, 84742.70, 87269.03, 104206.69, 101446.48, 90469.27, -187500.02, -187500.02, 0.000, 0.000, 0.000, 18:40:59.054, 1577144459054
85, -187500.02, 83645.61, 86024.10, 102946.25, 100307.70, 90141.63, -187500.02, -187500.02, 0.000, 0.000, 0.000, 18:40:59.054, 1577144459054
86, -187500.02, 83055.46, 85454.76, 102385.27, 99690.52, 89215.40, -187500.02, -187500.02, 0.000, 0.000, 0.000, 18:40:59.054, 1577144459054
87, -187500.02, 83846.98, 86368.39, 103313.41, 100512.04, 89323.70, -187500.02, -187500.02, 0.000, 0.000, 0.000, 18:40:59.054, 1577144459054
88, -187500.02, 84764.34, 87313.00, 104255.10, 101474.86, 90336.74, -187500.02, -187500.02, 0.158, 0.310, 0.980, 18:40:59.054, 1577144459054
89, -187500.02, 83863.98, 86256.92, 103180.77, 100543.62, 90323.64, -187500.02, -187500.02, 0.000, 0.000, 0.000, 18:40:59.054, 1577144459054
90, -187500.02, 83057.76, 85438.22, 102365.64, 99688.28, 89329.73, -187500.02, -187500.02, 0.000, 0.000, 0.000, 18:40:59.054, 1577144459054
91, -187500.02, 83634.48, 86127.88, 103068.49, 100278.70, 89212.58, -187500.02, -187500.02, 0.000, 0.000, 0.000, 18:40:59.054, 1577144459054
92, -187500.02, 84709.55, 87272.31, 104215.43, 101422.38, 90152.16, -187500.02, -187500.02, 0.000, 0.000, 0.000, 18:40:59.054, 1577144459054
93, -187500.02, 84105.19, 86525.21, 103449.08, 100797.94, 90465.48, -187500.02, -187500.02, 0.000, 0.000, 0.000, 18:40:59.054, 1577144459054
94, -187500.02, 83112.59, 85484.89, 102409.27, 99750.24, 89480.16, -187500.02, -187500.02, 0.000, 0.000, 0.000, 18:40:59.054, 1577144459054
95, -187500.02, 83450.48, 85922.77, 102859.39, 100093.99, 89164.66, -187500.02, -187500.02, 0.000, 0.000, 0.000, 18:40:59.054, 1577144459054
96, -187500.02, 84600.61, 87164.31, 104106.84, 101291.28, 89961.99, -187500.02, -187500.02, 0.000, 0.000, 0.000, 18:40:59.054, 1577144459054
97, -187500.02, 84328.30, 86775.80, 103700.87, 101031.55, 90556.26, -187500.02, -187500.02, 0.000, 0.000, 0.000, 18:40:59.054, 1577144459054
98, -187500.02, 83181.55, 85548.80, 102470.05, 99825.13, 89633.45, -187500.02, -187500.02, 0.156, 0.314, 0.980, 18:40:59.054, 1577144459054
99, -187500.02, 83278.04, 85728.77, 102662.14, 99922.35, 89129.27, -187500.02, -187500.02, 0.000, 0.000, 0.000, 18:40:59.054, 1577144459054
100, -187500.02, 84422.06, 86982.33, 103924.08, 101105.07, 89752.87, -187500.02, -187500.02, 0.000, 0.000, 0.000, 18:40:59.054, 1577144459054
101, -187500.02, 84513.26, 86985.56, 103910.38, 101208.05, 90559.30, -187500.02, -187500.02, 0.000, 0.000, 0.000, 18:40:59.054, 1577144459054
102, -187500.02, 83319.12, 85679.02, 102594.93, 99958.31, 89813.66, -187500.02, -187500.02, 0.000, 0.000, 0.000, 18:40:59.054, 1577144459054
103, -187500.02, 83168.67, 85598.53, 102524.85, 99800.94, 89133.26, -187500.02, -187500.02, 0.000, 0.000, 0.000, 18:40:59.055, 1577144459055
104, -187500.02, 84234.16, 86788.94, 103727.87, 100912.65, 89587.82, -187500.02, -187500.02, 0.000, 0.000, 0.000, 18:40:59.055, 1577144459055
105, -187500.02, 84669.14, 87176.25, 104103.41, 101377.43, 90549.35, -187500.02, -187500.02, 0.000, 0.000, 0.000, 18:40:59.055, 1577144459055
106, -187500.02, 83503.97, 85870.21, 102785.01, 100152.64, 90027.48, -187500.02, -187500.02, 0.000, 0.000, 0.000, 18:40:59.055, 1577144459055
107, -187500.02, 83090.62, 85496.85, 102421.16, 99711.30, 89164.55, -187500.02, -187500.02, 0.000, 0.000, 0.000, 18:40:59.055, 1577144459055
108, -187500.02, 84012.74, 86544.19, 103481.02, 100669.86, 89417.88, -187500.02, -187500.02, 0.000, 0.000, 0.000, 18:40:59.055, 1577144459055
109, -187500.02, 84754.30, 87285.03, 104213.87, 101465.09, 90453.15, -187500.02, -187500.02, 0.154, 0.312, 0.980, 18:40:59.055, 1577144459055
110, -187500.02, 83704.17, 86084.16, 102996.99, 100371.87, 90209.38, -187500.02, -187500.02, 0.000, 0.000, 0.000, 18:40:59.055, 1577144459055
111, -187500.02, 83053.34, 85446.42, 102365.30, 99687.16, 89254.87, -187500.02, -187500.02, 0.000, 0.000, 0.000, 18:40:59.055, 1577144459055
112, -187500.02, 83787.05, 86303.21, 103234.52, 100448.09, 89301.32, -187500.02, -187500.02, 0.000, 0.000, 0.000, 18:40:59.055, 1577144459055
113, -187500.02, 84750.08, 87307.03, 104235.79, 101459.77, 90288.77, -187500.02, -187500.02, 0.000, 0.000, 0.000, 18:40:59.055, 1577144459055
114, -187500.02, 83935.11, 86339.42, 103249.01, 100618.12, 90374.34, -187500.02, -187500.02, 0.000, 0.000, 0.000, 18:40:59.055, 1577144459055
115, -187500.02, 83069.30, 85451.05, 102363.77, 99704.45, 89375.95, -187500.02, -187500.02, 0.000, 0.000, 0.000, 18:40:59.055, 1577144459055
116, -187500.02, 83588.23, 86078.51, 103004.13, 100236.41, 89211.17, -187500.02, -187500.02, 0.000, 0.000, 0.000, 18:40:59.055, 1577144459055
117, -187500.02, 84705.22, 87272.41, 104199.80, 101407.02, 90119.23, -187500.02, -187500.02, 0.000, 0.000, 0.000, 18:40:59.055, 1577144459055
118, -187500.02, 84172.45, 86603.35, 103509.98, 100855.27, 90492.95, -187500.02, -187500.02, 0.000, 0.000, 0.000, 18:40:59.055, 1577144459055
119, -187500.02, 83106.53, 85478.09, 102383.46, 99732.52, 89488.31, -187500.02, -187500.02, 0.154, 0.312, 0.978, 18:40:59.055, 1577144459055
120, -187500.02, 83388.21, 85857.92, 102776.52, 100039.30, 89140.95, -187500.02, -187500.02, 0.000, 0.000, 0.000, 18:40:59.055, 1577144459055
121, -187500.02, 84554.55, 87126.56, 104051.59, 101254.63, 89911.77, -187500.02, -187500.02, 0.000, 0.000, 0.000, 18:40:59.528, 1577144459528
122, -187500.02, 84398.13, 86859.32, 103765.87, 101102.05, 90576.69, -187500.02, -187500.02, 0.000, 0.000, 0.000, 18:40:59.528, 1577144459528
123, -187500.02, 83226.05, 85593.45, 102494.21, 99865.55, 89684.98, -187500.02, -187500.02, 0.000, 0.000, 0.000, 18:40:59.528, 1577144459528
124, -187500.02, 83257.09, 85706.13, 102619.31, 99898.10, 89136.14, -187500.02, -187500.02, 0.000, 0.000, 0.000, 18:40:59.528, 1577144459528
125, -187500.02, 84378.16, 86942.88, 103867.44, 101065.48, 89710.18, -187500.02, -187500.02, 0.000, 0.000, 0.000, 18:40:59.528, 1577144459528
126, -187500.02, 84563.55, 87052.58, 103962.90, 101273.27, 90569.29, -187500.02, -187500.02, 0.000, 0.000, 0.000, 18:40:59.528, 1577144459528
127, -187500.02, 83347.04, 85714.40, 102614.77, 99998.10, 89860.18, -187500.02, -187500.02, 0.000, 0.000, 0.000, 18:40:59.528, 1577144459528
128, -187500.02, 83115.95, 85544.80, 102455.25, 99760.15, 89123.98, -187500.02, -187500.02, 0.000, 0.000, 0.000, 18:40:59.528, 1577144459528
129, -187500.02, 84150.16, 86703.24, 103625.43, 100829.23, 89518.06, -187500.02, -187500.02, 0.156, 0.312, 0.976, 18:40:59.528, 1577144459528
130, -187500.02, 84673.34, 87195.02, 104107.36, 101388.56, 90499.13, -187500.02, -187500.02, 0.000, 0.000, 0.000, 18:40:59.528, 1577144459528
131, -187500.02, 83527.75, 85905.62, 102802.73, 100188.77, 90048.49, -187500.02, -187500.02, 0.000, 0.000, 0.000, 18:40:59.528, 1577144459528
132, -187500.02, 83054.72, 85468.22, 102372.98, 99686.30, 89158.02, -187500.02, -187500.02, 0.000, 0.000, 0.000, 18:40:59.529, 1577144459529
133, -187500.02, 83925.19, 86462.22, 103379.09, 100595.27, 89358.31, -187500.02, -187500.02, 0.000, 0.000, 0.000, 18:40:59.529, 1577144459529
134, -187500.02, 84747.27, 87290.55, 104200.19, 101455.97, 90397.89, -187500.02, -187500.02, 0.000, 0.000, 0.000, 18:40:59.529, 1577144459529
135, -187500.02, 83771.48, 86163.60, 103055.64, 100445.23, 90260.72, -187500.02, -187500.02, 0.000, 0.000, 0.000, 18:40:59.529, 1577144459529
136, -187500.02, 83068.11, 85463.68, 102360.48, 99705.49, 89302.05, -187500.02, -187500.02, 0.000, 0.000, 0.000, 18:40:59.529, 1577144459529
137, -187500.02, 83733.97, 86249.39, 103159.53, 100396.32, 89276.24, -187500.02, -187500.02, 0.000, 0.000, 0.000, 18:40:59.529, 1577144459529
138, -187500.02, 84746.70, 87314.61, 104224.35, 101458.56, 90240.90, -187500.02, -187500.02, 0.000, 0.000, 0.000, 18:40:59.529, 1577144459529
139, -187500.02, 83997.98, 86413.95, 103304.28, 100678.27, 90402.03, -187500.02, -187500.02, 0.158, 0.308, 0.976, 18:40:59.529, 1577144459529
140, -187500.02, 83084.20, 85466.98, 102358.91, 99713.23, 89408.34, -187500.02, -187500.02, 0.000, 0.000, 0.000, 18:40:59.529, 1577144459529
141, -187500.02, 83536.36, 86029.94, 102935.16, 100188.07, 89196.16, -187500.02, -187500.02, 0.000, 0.000, 0.000, 18:40:59.529, 1577144459529
142, -187500.02, 84662.34, 87237.54, 104146.01, 101359.70, 90047.33, -187500.02, -187500.02, 0.000, 0.000, 0.000, 18:40:59.529, 1577144459529
143, -187500.02, 84230.11, 86673.38, 103562.05, 100920.49, 90515.04, -187500.02, -187500.02, 0.000, 0.000, 0.000, 18:40:59.529, 1577144459529
144, -187500.02, 83138.96, 85514.15, 102398.92, 99769.09, 89551.57, -187500.02, -187500.02, 0.000, 0.000, 0.000, 18:40:59.529, 1577144459529
145, -187500.02, 83355.15, 85823.52, 102720.19, 100001.41, 89139.00, -187500.02, -187500.02, 0.000, 0.000, 0.000, 18:40:59.529, 1577144459529
146, -187500.02, 84520.99, 87096.85, 104001.86, 101218.51, 89856.83, -187500.02, -187500.02, 0.000, 0.000, 0.000, 18:40:59.529, 1577144459529
147, -187500.02, 84457.09, 86935.50, 103823.40, 101167.52, 90590.27, -187500.02, -187500.02, 0.000, 0.000, 0.000, 18:40:59.529, 1577144459529
148, -187500.02, 83259.06, 85636.33, 102516.27, 99905.95, 89738.41, -187500.02, -187500.02, 0.000, 0.000, 0.000, 18:40:59.529, 1577144459529
149, -187500.02, 83220.10, 85672.53, 102564.20, 99864.95, 89127.13, -187500.02, -187500.02, 0.160, 0.310, 0.974, 18:40:59.529, 1577144459529
150, -187500.02, 84334.90, 86907.36, 103809.66, 101023.02, 89661.34, -187500.02, -187500.02, 0.000, 0.000, 0.000, 18:40:59.529, 1577144459529
151, -187500.02, 84614.67, 87125.27, 104013.68, 101333.48, 90570.02, -187500.02, -187500.02, 0.000, 0.000, 0.000, 18:40:59.529, 1577144459529
152, -187500.02, 83406.13, 85789.03, 102664.95, 100066.05, 89927.05, -187500.02, -187500.02, 0.000, 0.000, 0.000, 18:40:59.529, 1577144459529
153, -187500.02, 83112.14, 85547.81, 102431.85, 99754.22, 89144.38, -187500.02, -187500.02, 0.000, 0.000, 0.000, 18:40:59.529, 1577144459529
154, -187500.02, 84109.50, 86667.79, 103563.38, 100783.09, 89483.46, -187500.02, -187500.02, 0.000, 0.000, 0.000, 18:40:59.529, 1577144459529
155, -187500.02, 84748.00, 87288.09, 104175.40, 101462.12, 90507.02, -187500.02, -187500.02, 0.000, 0.000, 0.000, 18:40:59.529, 1577144459529
156, -187500.02, 83617.11, 86010.31, 102882.57, 100284.77, 90118.05, -187500.02, -187500.02, 0.000, 0.000, 0.000, 18:40:59.529, 1577144459529
157, -187500.02, 83062.66, 85482.92, 102362.56, 99709.07, 89218.64, -187500.02, -187500.02, 0.000, 0.000, 0.000, 18:40:59.529, 1577144459529
158, -187500.02, 83891.26, 86434.98, 103327.57, 100563.83, 89359.34, -187500.02, -187500.02, 0.000, 0.000, 0.000, 18:40:59.529, 1577144459529
159, -187500.02, 84777.19, 87341.16, 104230.07, 101490.80, 90371.20, -187500.02, -187500.02, 0.160, 0.308, 0.976, 18:40:59.529, 1577144459529
160, -187500.02, 83833.66, 86243.11, 103114.83, 100509.00, 90299.57, -187500.02, -187500.02, 0.000, 0.000, 0.000, 18:40:59.529, 1577144459529
161, -187500.02, 83053.29, 85456.20, 102333.05, 99686.23, 89306.82, -187500.02, -187500.02, 0.000, 0.000, 0.000, 18:40:59.529, 1577144459529
162, -187500.02, 83667.38, 86186.55, 103076.36, 100326.67, 89233.16, -187500.02, -187500.02, 0.000, 0.000, 0.000, 18:40:59.529, 1577144459529
163, -187500.02, 84725.42, 87307.34, 104197.98, 101441.47, 90178.69, -187500.02, -187500.02, 0.000, 0.000, 0.000, 18:40:59.529, 1577144459529
164, -187500.02, 84061.94, 86497.70, 103369.30, 100757.81, 90440.34, -187500.02, -187500.02, 0.000, 0.000, 0.000, 18:40:59.529, 1577144459529
165, -187500.02, 83080.18, 85475.91, 102348.32, 99730.22, 89446.94, -187500.02, -187500.02, 0.000, 0.000, 0.000, 18:40:59.529, 1577144459529
166, -187500.02, 83460.43, 85958.44, 102842.92, 100120.34, 89169.22, -187500.02, -187500.02, 0.000, 0.000, 0.000, 18:40:59.529, 1577144459529
167, -187500.02, 84616.70, 87206.69, 104095.38, 101323.38, 89987.23, -187500.02, -187500.02, 0.000, 0.000, 0.000, 18:40:59.529, 1577144459529
168, -187500.02, 84292.85, 86758.70, 103627.76, 100995.15, 90538.29, -187500.02, -187500.02, 0.000, 0.000, 0.000, 18:40:59.529, 1577144459529
169, -187500.02, 83156.38, 85547.12, 102412.13, 99805.16, 89592.85, -187500.02, -187500.02, 0.160, 0.310, 0.970, 18:40:59.529, 1577144459529
170, -187500.02, 83298.89, 85777.77, 102653.94, 99947.32, 89120.90, -187500.02, -187500.02, 0.000, 0.000, 0.000, 18:40:59.529, 1577144459529
171, -187500.02, 84457.72, 87044.10, 103928.10, 101141.84, 89782.04, -187500.02, -187500.02, 0.000, 0.000, 0.000, 18:40:59.529, 1577144459529
172, -187500.02, 84497.19, 86995.96, 103864.57, 101206.04, 90577.06, -187500.02, -187500.02, 0.000, 0.000, 0.000, 18:40:59.529, 1577144459529
173, -187500.02, 83286.53, 85681.14, 102542.38, 99951.14, 89789.10, -187500.02, -187500.02, 0.000, 0.000, 0.000, 18:40:59.530, 1577144459530
174, -187500.02, 83173.77, 85640.28, 102512.61, 99835.43, 89130.13, -187500.02, -187500.02, 0.000, 0.000, 0.000, 18:40:59.530, 1577144459530
175, -187500.02, 84257.31, 86844.59, 103728.77, 100955.90, 89602.77, -187500.02, -187500.02, 0.000, 0.000, 0.000, 18:40:59.530, 1577144459530
176, -187500.02, 84646.30, 87180.54, 104054.19, 101373.36, 90550.63, -187500.02, -187500.02, 0.000, 0.000, 0.000, 18:40:59.530, 1577144459530
177, -187500.02, 83464.48, 85862.88, 102725.33, 100135.92, 89987.98, -187500.02, -187500.02, 0.000, 0.000, 0.000, 18:40:59.530, 1577144459530
178, -187500.02, 83100.97, 85542.94, 102415.78, 99750.76, 89170.98, -187500.02, -187500.02, 0.000, 0.000, 0.000, 18:40:59.530, 1577144459530
179, -187500.02, 84038.42, 86600.55, 103487.50, 100719.13, 89434.20, -187500.02, -187500.02, 0.160, 0.308, 0.976, 18:40:59.530, 1577144459530
180, -187500.02, 84731.19, 87287.96, 104169.23, 101463.08, 90448.79, -187500.02, -187500.02, 0.000, 0.000, 0.000, 18:40:59.530, 1577144459530
181, -187500.02, 83660.37, 86072.54, 102937.55, 100347.98, 90171.27, -187500.02, -187500.02, 0.000, 0.000, 0.000, 18:40:59.530, 1577144459530
182, -187500.02, 83047.28, 85474.70, 102346.04, 99699.57, 89229.08, -187500.02, -187500.02, 0.000, 0.000, 0.000, 18:40:59.530, 1577144459530
183, -187500.02, 83799.28, 86345.08, 103230.37, 100477.84, 89293.52, -187500.02, -187500.02, 0.000, 0.000, 0.000, 18:40:59.530, 1577144459530
184, -187500.02, 84736.38, 87315.81, 104199.47, 101464.13, 90294.88, -187500.02, -187500.02, 0.000, 0.000, 0.000, 18:40:59.530, 1577144459530
185, -187500.02, 83879.70, 86306.45, 103172.32, 100572.03, 90325.32, -187500.02, -187500.02, 0.000, 0.000, 0.000, 18:40:59.530, 1577144459530
186, -187500.02, 83047.34, 85457.60, 102327.58, 99694.07, 89329.70, -187500.02, -187500.02, 0.000, 0.000, 0.000, 18:40:59.530, 1577144459530
187, -187500.02, 83599.45, 86121.34, 103004.50, 100257.72, 89196.04, -187500.02, -187500.02, 0.000, 0.000, 0.000, 18:40:59.530, 1577144459530
188, -187500.02, 84695.61, 87289.91, 104176.18, 101416.99, 90121.47, -187500.02, -187500.02, 0.000, 0.000, 0.000, 18:40:59.530, 1577144459530
189, -187500.02, 84118.46, 86573.80, 103440.85, 100833.21, 90462.63, -187500.02, -187500.02, 0.160, 0.312, 0.974, 18:40:59.530, 1577144459530
190, -187500.02, 83083.58, 85487.10, 102354.70, 99745.23, 89465.55, -187500.02, -187500.02, 0.000, 0.000, 0.000, 18:40:59.530, 1577144459530
191, -187500.02, 83397.17, 85897.13, 102777.92, 100068.17, 89134.26, -187500.02, -187500.02, 0.000, 0.000, 0.000, 18:40:59.530, 1577144459530
192, -187500.02, 84552.51, 87146.63, 104034.38, 101269.23, 89912.28, -187500.02, -187500.02, 0.000, 0.000, 0.000, 18:40:59.530, 1577144459530
193, -187500.02, 84328.91, 86812.05, 103681.76, 101042.51, 90524.80, -187500.02, -187500.02, 0.000, 0.000, 0.000, 18:40:59.530, 1577144459530
194, -187500.02, 83183.24, 85579.33, 102445.35, 99841.69, 89630.42, -187500.02, -187500.02, 0.000, 0.000, 0.000, 18:40:59.530, 1577144459530
195, -187500.02, 83251.95, 85727.12, 102606.06, 99915.34, 89102.34, -187500.02, -187500.02, 0.000, 0.000, 0.000, 18:40:59.530, 1577144459530
196, -187500.02, 84399.47, 86990.57, 103881.14, 101109.77, 89722.85, -187500.02, -187500.02, 0.000, 0.000, 0.000, 18:40:59.530, 1577144459530
197, -187500.02, 84531.41, 87045.00, 103919.96, 101259.08, 90550.63, -187500.02, -187500.02, 0.000, 0.000, 0.000, 18:40:59.530, 1577144459530
198, -187500.02, 83316.52, 85712.41, 102577.27, 99983.44, 89806.09, -187500.02, -187500.02, 0.000, 0.000, 0.000, 18:40:59.530, 1577144459530
199, -187500.02, 83140.55, 85601.39, 102476.73, 99805.16, 89119.42, -187500.02, -187500.02, 0.154, 0.310, 0.982, 18:40:59.530, 1577144459530
200, -187500.02, 84183.84, 86767.48, 103654.73, 100885.58, 89533.82, -187500.02, -187500.02, 0.000, 0.000, 0.000, 18:40:59.530, 1577144459530
201, -187500.02, 84671.09, 87214.65, 104091.53, 101403.20, 90503.06, -187500.02, -187500.02, 0.000, 0.000, 0.000, 18:40:59.530, 1577144459530
202, -187500.02, 83508.66, 85912.37, 102776.24, 100193.63, 90021.23, -187500.02, -187500.02, 0.000, 0.000, 0.000, 18:40:59.530, 1577144459530
203, -187500.02, 83069.83, 85508.00, 102379.44, 99721.48, 89153.80, -187500.02, -187500.02, 0.000, 0.000, 0.000, 18:40:59.530, 1577144459530
204, -187500.02, 83971.55, 86534.51, 103419.35, 100660.77, 89378.63, -187500.02, -187500.02, 0.000, 0.000, 0.000, 18:40:59.530, 1577144459530
205, -187500.02, 84752.96, 87322.09, 104200.52, 101488.18, 90412.96, -187500.02, -187500.02, 0.000, 0.000, 0.000, 18:40:59.530, 1577144459530
206, -187500.02, 83722.39, 86137.43, 102998.35, 100408.97, 90199.59, -187500.02, -187500.02, 0.000, 0.000, 0.000, 18:40:59.530, 1577144459530
207, -187500.02, 83040.48, 85461.73, 102329.75, 99694.90, 89238.17, -187500.02, -187500.02, 0.000, 0.000, 0.000, 18:40:59.530, 1577144459530
208, -187500.02, 83740.83, 86282.85, 103165.03, 100423.79, 89252.13, -187500.02, -187500.02, 0.000, 0.000, 0.000, 18:40:59.530, 1577144459530
209, -187500.02, 84741.30, 87328.11, 104210.83, 101476.07, 90245.88, -187500.02, -187500.02, 0.152, 0.312, 0.980, 18:40:59.530, 1577144459530
210, -187500.02, 83958.40, 86393.94, 103258.59, 100661.50, 90363.16, -187500.02, -187500.02, 0.000, 0.000, 0.000, 18:40:59.530, 1577144459530
211, -187500.02, 83053.54, 85461.42, 102328.72, 99706.48, 89347.66, -187500.02, -187500.02, 0.000, 0.000, 0.000, 18:40:59.531, 1577144459531
212, -187500.02, 83540.27, 86055.24, 102936.91, 100210.09, 89166.36, -187500.02, -187500.02, 0.000, 0.000, 0.000, 18:40:59.531, 1577144459531
213, -187500.02, 84678.38, 87271.91, 104156.84, 101397.52, 90068.09, -187500.02, -187500.02, 0.000, 0.000, 0.000, 18:40:59.531, 1577144459531
214, -187500.02, 84203.55, 86662.60, 103527.60, 100917.63, 90495.93, -187500.02, -187500.02, 0.000, 0.000, 0.000, 18:40:59.531, 1577144459531
215, -187500.02, 83123.48, 85520.95, 102384.09, 99781.56, 89507.20, -187500.02, -187500.02, 0.000, 0.000, 0.000, 18:40:59.531, 1577144459531
216, -187500.02, 83366.05, 85857.45, 102732.91, 100027.16, 89112.85, -187500.02, -187500.02, 0.000, 0.000, 0.000, 18:40:59.531, 1577144459531
217, -187500.02, 84533.65, 87129.49, 104013.88, 101245.38, 89849.05, -187500.02, -187500.02, 0.000, 0.000, 0.000, 18:40:59.531, 1577144459531
218, -187500.02, 84412.68, 86905.21, 103771.41, 101137.30, 90539.52, -187500.02, -187500.02, 0.000, 0.000, 0.000, 18:40:59.531, 1577144459531
219, -187500.02, 83231.73, 85630.13, 102488.73, 99894.84, 89683.04, -187500.02, -187500.02, 0.156, 0.310, 0.980, 18:40:59.531, 1577144459531
220, -187500.02, 83227.88, 85705.50, 102575.75, 99886.66, 89112.70, -187500.02, -187500.02, 0.000, 0.000, 0.000, 18:40:59.531, 1577144459531
221, -187500.02, 84341.02, 86936.98, 103819.11, 101052.23, 89662.88, -187500.02, -187500.02, 0.000, 0.000, 0.000, 18:40:59.531, 1577144459531
222, -187500.02, 84578.98, 87103.27, 103971.84, 101313.39, 90545.93, -187500.02, -187500.02, 0.000, 0.000, 0.000, 18:40:59.531, 1577144459531
223, -187500.02, 83373.63, 85772.11, 102631.56, 100046.70, 89869.16, -187500.02, -187500.02, 0.000, 0.000, 0.000, 18:40:59.531, 1577144459531
224, -187500.02, 83118.22, 85572.84, 102443.20, 99776.66, 89114.52, -187500.02, -187500.02, 0.000, 0.000, 0.000, 18:40:59.531, 1577144459531
225, -187500.02, 84139.49, 86716.23, 103598.61, 100831.82, 89488.24, -187500.02, -187500.02, 0.000, 0.000, 0.000, 18:40:59.531, 1577144459531
226, -187500.02, 84715.48, 87265.66, 104139.30, 101444.91, 90483.81, -187500.02, -187500.02, 0.000, 0.000, 0.000, 18:40:59.531, 1577144459531
227, -187500.02, 83574.42, 85983.65, 102843.95, 100261.67, 90070.17, -187500.02, -187500.02, 0.000, 0.000, 0.000, 18:40:59.532, 1577144459532
228, -187500.02, 83060.84, 85500.74, 102369.53, 99725.39, 89186.48, -187500.02, -187500.02, 0.000, 0.000, 0.000, 18:40:59.532, 1577144459532
229, -187500.02, 83897.02, 86459.36, 103341.70, 100588.75, 89335.07, -187500.02, -187500.02, 0.154, 0.314, 0.982, 18:40:59.532, 1577144459532
230, -187500.02, 84759.51, 87339.30, 104217.89, 101494.69, 90360.92, -187500.02, -187500.02, 0.000, 0.000, 0.000, 18:40:59.532, 1577144459532
231, -187500.02, 83786.65, 86210.20, 103072.36, 100486.58, 90253.08, -187500.02, -187500.02, 0.000, 0.000, 0.000, 18:40:59.532, 1577144459532
232, -187500.02, 83034.31, 85453.53, 102321.50, 99692.42, 89268.93, -187500.02, -187500.02, 0.000, 0.000, 0.000, 18:40:59.532, 1577144459532
233, -187500.02, 83671.65, 86209.45, 103091.34, 100350.45, 89211.80, -187500.02, -187500.02, 0.000, 0.000, 0.000, 18:40:59.532, 1577144459532
234, -187500.02, 84716.73, 87309.71, 104192.36, 101445.20, 90176.19, -187500.02, -187500.02, 0.000, 0.000, 0.000, 18:40:59.532, 1577144459532
235, -187500.02, 84006.21, 86452.84, 103316.63, 100719.10, 90389.63, -187500.02, -187500.02, 0.000, 0.000, 0.000, 18:40:59.532, 1577144459532
236, -187500.02, 83055.75, 85467.16, 102332.72, 99718.73, 89383.57, -187500.02, -187500.02, 0.000, 0.000, 0.000, 18:40:59.532, 1577144459532
237, -187500.02, 83480.05, 85997.17, 102875.27, 100155.59, 89144.56, -187500.02, -187500.02, 0.000, 0.000, 0.000, 18:40:59.532, 1577144459532
238, -187500.02, 84633.07, 87238.03, 104120.34, 101354.12, 89991.90, -187500.02, -187500.02, 0.000, 0.000, 0.000, 18:40:59.532, 1577144459532
239, -187500.02, 84254.09, 86730.91, 103594.43, 100969.13, 90502.88, -187500.02, -187500.02, 0.000, 0.000, 0.000, 18:40:59.532, 1577144459532
240, -187500.02, 83137.89, 85539.12, 102400.47, 99800.70, 89548.82, -187500.02, -187500.02, 0.158, 0.310, 0.978, 18:40:59.532, 1577144459532
241, -187500.02, 83309.55, 85798.02, 102671.39, 99973.52, 89098.48, -187500.02, -187500.02, 0.000, 0.000, 0.000, 18:41:00.008, 1577144460008
242, -187500.02, 84469.72, 87068.29, 103951.34, 101183.82, 89791.40, -187500.02, -187500.02, 0.000, 0.000, 0.000, 18:41:00.008, 1577144460008
243, -187500.02, 84457.65, 86962.09, 103829.39, 101184.55, 90551.61, -187500.02, -187500.02, 0.000, 0.000, 0.000, 18:41:00.008, 1577144460008
244, -187500.02, 83271.76, 85670.08, 102531.29, 99934.78, 89734.95, -187500.02, -187500.02, 0.000, 0.000, 0.000, 18:41:00.008, 1577144460008
245, -187500.02, 83192.66, 85661.34, 102534.45, 99847.43, 89093.49, -187500.02, -187500.02, 0.000, 0.000, 0.000, 18:41:00.008, 1577144460008
246, -187500.02, 84282.91, 86871.68, 103756.59, 100979.75, 89594.44, -187500.02, -187500.02, 0.000, 0.000, 0.000, 18:41:00.008, 1577144460008
247, -187500.02, 84630.27, 87163.04, 104035.77, 101369.78, 90545.95, -187500.02, -187500.02, 0.000, 0.000, 0.000, 18:41:00.008, 1577144460008
248, -187500.02, 83432.11, 85829.55, 102690.93, 100108.12, 89940.31, -187500.02, -187500.02, 0.000, 0.000, 0.000, 18:41:00.008, 1577144460008
249, -187500.02, 83101.70, 85544.68, 102416.54, 99753.64, 89134.89, -187500.02, -187500.02, 0.000, 0.000, 0.000, 18:41:00.008, 1577144460008
250, -187500.02, 84055.59, 86622.73, 103507.35, 100736.23, 89412.14, -187500.02, -187500.02, 0.162, 0.312, 0.976, 18:41:00.008, 1577144460008
251, -187500.02, 84717.89, 87273.99, 104151.03, 101442.34, 90434.69, -187500.02, -187500.02, 0.000, 0.000, 0.000, 18:41:00.008, 1577144460008
252, -187500.02, 83627.17, 86033.38, 102894.80, 100306.71, 90120.45, -187500.02, -187500.02, 0.000, 0.000, 0.000, 18:41:00.008, 1577144460008
253, -187500.02, 83047.19, 85472.48, 102340.56, 99693.72, 89196.22, -187500.02, -187500.02, 0.000, 0.000, 0.000, 18:41:00.008, 1577144460008
254, -187500.02, 83840.90, 86391.81, 103272.79, 100522.16, 89303.73, -187500.02, -187500.02, 0.000, 0.000, 0.000, 18:41:00.008, 1577144460008
255, -187500.02, 84759.66, 87342.92, 104219.95, 101488.67, 90319.41, -187500.02, -187500.02, 0.000, 0.000, 0.000, 18:41:00.008, 1577144460008
0, -187500.02, 83855.83, 86284.55, 103142.10, 100545.38, 90299.55, -187500.02, -187500.02, 0.000, 0.000, 0.000, 18:41:00.008, 1577144460008
1, -187500.02, 83034.90, 85453.84, 102313.38, 99685.27, 89288.13, -187500.02, -187500.02, 0.000, 0.000, 0.000, 18:41:00.008, 1577144460008
2, -187500.02, 83621.25, 86156.41, 103027.66, 100291.85, 89187.59, -187500.02, -187500.02, 0.000, 0.000, 0.000, 18:41:00.008, 1577144460008
3, -187500.02, 84707.88, 87306.89, 104179.66, 101429.95, 90134.91, -187500.02, -187500.02, 0.000, 0.000, 0.000, 18:41:00.008, 1577144460008
4, -187500.02, 84087.93, 86544.19, 103398.16, 100793.38, 90441.84, -187500.02, -187500.02, 0.162, 0.314, 0.974, 18:41:00.008, 1577144460008
5, -187500.02, 83082.19, 85491.44, 102347.20, 99737.37, 89442.54, -187500.02, -187500.02, 0.000, 0.000, 0.000, 18:41:00.008, 1577144460008
6, -187500.02, 83428.11, 85939.57, 102809.10, 100092.74, 89124.80, -187500.02, -187500.02, 0.000, 0.000, 0.000, 18:41:00.008, 1577144460008
7, -187500.02, 84590.95, 87198.24, 104075.82, 101306.33, 89929.54, -187500.02, -187500.02, 0.000, 0.000, 0.000, 18:41:00.008, 1577144460008
8, -187500.02, 84324.26, 86807.69, 103666.09, 101035.98, 90522.64, -187500.02, -187500.02, 0.000, 0.000, 0.000, 18:41:00.008, 1577144460008
9, -187500.02, 83168.55, 85567.37, 102421.52, 99821.45, 89597.55, -187500.02, -187500.02, 0.000, 0.000, 0.000, 18:41:00.008, 1577144460008
10, -187500.02, 83263.46, 85748.28, 102614.87, 99916.97, 89088.64, -187500.02, -187500.02, 0.000, 0.000, 0.000, 18:41:00.008, 1577144460008
11, -187500.02, 84422.05, 87025.09, 103903.20, 101125.84, 89739.26, -187500.02, -187500.02, 0.000, 0.000, 0.000, 18:41:00.008, 1577144460008
12, -187500.02, 84511.48, 87027.27, 103890.46, 101230.27, 90549.69, -187500.02, -187500.02, 0.000, 0.000, 0.000, 18:41:00.008, 1577144460008
13, -187500.02, 83299.90, 85697.75, 102553.51, 99962.41, 89785.77, -187500.02, -187500.02, 0.000, 0.000, 0.000, 18:41:00.008, 1577144460008
14, -187500.02, 83155.30, 85621.33, 102489.43, 99811.35, 89107.75, -187500.02, -187500.02, 0.164, 0.314, 0.978, 18:41:00.008, 1577144460008
15, -187500.02, 84225.35, 86813.81, 103694.30, 100913.54, 89556.58, -187500.02, -187500.02, 0.000, 0.000, 0.000, 18:41:00.008, 1577144460008
16, -187500.02, 84661.55, 87205.53, 104075.59, 101389.32, 90519.38, -187500.02, -187500.02, 0.000, 0.000, 0.000, 18:41:00.008, 1577144460008
17, -187500.02, 83480.97, 85887.09, 102744.80, 100155.44, 89985.77, -187500.02, -187500.02, 0.000, 0.000, 0.000, 18:41:00.008, 1577144460008
18, -187500.02, 83072.85, 85518.69, 102385.02, 99719.69, 89133.57, -187500.02, -187500.02, 0.000, 0.000, 0.000, 18:41:00.008, 1577144460008
19, -187500.02, 83999.15, 86569.27, 103448.59, 100680.73, 89393.67, -187500.02, -187500.02, 0.000, 0.000, 0.000, 18:41:00.009, 1577144460009
20, -187500.02, 84737.12, 87307.52, 104180.80, 101460.51, 90417.67, -187500.02, -187500.02, 0.000, 0.000, 0.000, 18:41:00.009, 1577144460009
21, -187500.02, 83671.95, 86094.40, 102952.66, 100356.63, 90169.75, -187500.02, -187500.02, 0.000, 0.000, 0.000, 18:41:00.009, 1577144460009
22, -187500.02, 83033.62, 85464.87, 102329.84, 99679.30, 89223.16, -187500.02, -187500.02, 0.000, 0.000, 0.000, 18:41:00.009, 1577144460009
23, -187500.02, 83773.48, 86323.57, 103202.09, 100439.04, 89260.62, -187500.02, -187500.02, 0.000, 0.000, 0.000, 18:41:00.009, 1577144460009
24, -187500.02, 84748.27, 87336.02, 104213.73, 101466.12, 90261.59, -187500.02, -187500.02, 0.158, 0.314, 0.982, 18:41:00.009, 1577144460009
25, -187500.02, 83920.16, 86354.45, 103215.50, 100607.73, 90341.34, -187500.02, -187500.02, 0.000, 0.000, 0.000, 18:41:00.009, 1577144460009
26, -187500.02, 83051.62, 85462.59, 102328.02, 99695.48, 89337.70, -187500.02, -187500.02, 0.000, 0.000, 0.000, 18:41:00.009, 1577144460009
27, -187500.02, 83556.49, 86078.82, 102958.99, 100218.16, 89163.85, -187500.02, -187500.02, 0.000, 0.000, 0.000, 18:41:00.009, 1577144460009
28, -187500.02, 84691.92, 87292.19, 104176.60, 101404.98, 90088.32, -187500.02, -187500.02, 0.000, 0.000, 0.000, 18:41:00.009, 1577144460009
29, -187500.02, 84181.95, 86642.91, 103509.25, 100884.28, 90492.66, -187500.02, -187500.02, 0.000, 0.000, 0.000, 18:41:00.009, 1577144460009
30, -187500.02, 83104.66, 85506.10, 102372.28, 99749.62, 89480.73, -187500.02, -187500.02, 0.000, 0.000, 0.000, 18:41:00.009, 1577144460009
31, -187500.02, 83373.70, 85870.82, 102748.98, 100026.67, 89105.52, -187500.02, -187500.02, 0.000, 0.000, 0.000, 18:41:00.009, 1577144460009
32, -187500.02, 84559.13, 87157.36, 104042.43, 101265.18, 89889.08, -187500.02, -187500.02, 0.000, 0.000, 0.000, 18:41:00.009, 1577144460009
33, -187500.02, 84393.88, 86884.09, 103750.63, 101105.36, 90562.09, -187500.02, -187500.02, 0.000, 0.000, 0.000, 18:41:00.009, 1577144460009
34, -187500.02, 83219.56, 85619.07, 102479.39, 99867.34, 89666.50, -187500.02, -187500.02, 0.158, 0.314, 0.980, 18:41:00.009, 1577144460009
35, -187500.02, 83240.13, 85719.97, 102590.93, 99879.51, 89090.79, -187500.02, -187500.02, 0.000, 0.000, 0.000, 18:41:00.009, 1577144460009
36, -187500.02, 84372.94, 86969.56, 103850.02, 101057.98, 89680.47, -187500.02, -187500.02, 0.000, 0.000, 0.000, 18:41:00.009, 1577144460009
37, -187500.02, 84559.02, 87082.57, 103946.56, 101276.04, 90545.70, -187500.02, -187500.02, 0.000, 0.000, 0.000, 18:41:00.009, 1577144460009
38, -187500.02, 83357.90, 85762.59, 102615.34, 100020.66, 89856.16, -187500.02, -187500.02, 0.000, 0.000, 0.000, 18:41:00.009, 1577144460009
39, -187500.02, 83130.91, 85594.21, 102456.02, 99778.48, 89124.72, -187500.02, -187500.02, 0.000, 0.000, 0.000, 18:41:00.009, 1577144460009
40, -187500.02, 84151.16, 86737.59, 103611.64, 100834.66, 89504.83, -187500.02, -187500.02, 0.000, 0.000, 0.000, 18:41:00.009, 1577144460009
41, -187500.02, 84691.96, 87248.29, 104114.02, 101413.93, 90501.41, -187500.02, -187500.02, 0.000, 0.000, 0.000, 18:41:00.009, 1577144460009
42, -187500.02, 83549.12, 85961.32, 102814.00, 100217.58, 90057.50, -187500.02, -187500.02, 0.000, 0.000, 0.000, 18:41:00.010, 1577144460010
43, -187500.02, 83072.76, 85518.53, 102381.23, 99719.35, 89182.88, -187500.02, -187500.02, 0.000, 0.000, 0.000, 18:41:00.010, 1577144460010
44, -187500.02, 83941.98, 86511.40, 103388.62, 100622.12, 89368.35, -187500.02, -187500.02, 0.158, 0.316, 0.978, 18:41:00.010, 1577144460010
45, -187500.02, 84760.65, 87338.08, 104210.11, 101485.12, 90406.01, -187500.02, -187500.02, 0.000, 0.000, 0.000, 18:41:00.010, 1577144460010
46, -187500.02, 83753.91, 86173.03, 103029.71, 100430.61, 90239.94, -187500.02, -187500.02, 0.000, 0.000, 0.000, 18:41:00.010, 1577144460010
47, -187500.02, 83037.45, 85456.62, 102320.85, 99677.06, 89267.34, -187500.02, -187500.02, 0.000, 0.000, 0.000, 18:41:00.010, 1577144460010
48, -187500.02, 83719.87, 86258.80, 103137.88, 100386.80, 89261.66, -187500.02, -187500.02, 0.000, 0.000, 0.000, 18:41:00.010, 1577144460010
49, -187500.02, 84741.65, 87332.20, 104211.61, 101460.51, 90233.92, -187500.02, -187500.02, 0.000, 0.000, 0.000, 18:41:00.010, 1577144460010
50, -187500.02, 83998.39, 86440.48, 103300.62, 100690.83, 90405.13, -187500.02, -187500.02, 0.000, 0.000, 0.000, 18:41:00.010, 1577144460010
51, -187500.02, 83059.17, 85470.56, 102333.13, 99704.27, 89389.90, -187500.02, -187500.02, 0.000, 0.000, 0.000, 18:41:00.010, 1577144460010
52, -187500.02, 83511.84, 86029.49, 102905.38, 100171.06, 89175.14, -187500.02, -187500.02, 0.000, 0.000, 0.000, 18:41:00.010, 1577144460010
53, -187500.02, 84650.57, 87250.12, 104131.27, 101362.56, 90041.14, -187500.02, -187500.02, 0.000, 0.000, 0.000, 18:41:00.010, 1577144460010
54, -187500.02, 84230.89, 86695.98, 103557.59, 100930.86, 90514.37, -187500.02, -187500.02, 0.156, 0.316, 0.980, 18:41:00.010, 1577144460010
55, -187500.02, 83141.29, 85539.43, 102399.77, 99787.77, 89556.93, -187500.02, -187500.02, 0.000, 0.000, 0.000, 18:41:00.010, 1577144460010
56, -187500.02, 83351.44, 85841.23, 102714.87, 100000.02, 89131.60, -187500.02, -187500.02, 0.000, 0.000, 0.000, 18:41:00.010, 1577144460010
57, -187500.02, 84517.77, 87110.98, 103993.59, 101210.22, 89838.45, -187500.02, -187500.02, 0.000, 0.000, 0.000, 18:41:00.010, 1577144460010
58, -187500.02, 84443.39, 86933.27, 103799.95, 101153.11, 90573.60, -187500.02, -187500.02, 0.000, 0.000, 0.000, 18:41:00.010, 1577144460010
59, -187500.02, 83252.58, 85639.21, 102500.80, 99901.92, 89740.51, -187500.02, -187500.02, 0.000, 0.000, 0.000, 18:41:00.010, 1577144460010
60, -187500.02, 83214.71, 85675.66, 102549.53, 99850.49, 89117.36, -187500.02, -187500.02, 0.000, 0.000, 0.000, 18:41:00.010, 1577144460010
61, -187500.02, 84315.31, 86897.77, 103781.29, 100990.23, 89632.75, -187500.02, -187500.02, 0.000, 0.000, 0.000, 18:41:00.010, 1577144460010
62, -187500.02, 84604.23, 87125.60, 103995.31, 101311.85, 90544.48, -187500.02, -187500.02, 0.000, 0.000, 0.000, 18:41:00.010, 1577144460010
63, -187500.02, 83405.51, 85796.59, 102655.44, 100054.09, 89916.73, -187500.02, -187500.02, 0.000, 0.000, 0.000, 18:41:00.010, 1577144460010
64, -187500.02, 83095.13, 85539.20, 102409.66, 99739.05, 89127.89, -187500.02, -187500.02, 0.152, 0.312, 0.984, 18:41:00.010, 1577144460010
65, -187500.02, 84087.77, 86654.94, 103537.88, 100766.16, 89462.30, -187500.02, -187500.02, 0.000, 0.000, 0.000, 18:41:00.010, 1577144460010
66, -187500.02, 84713.51, 87259.69, 104134.05, 101429.28, 90478.80, -187500.02, -187500.02, 0.000, 0.000, 0.000, 18:41:00.010, 1577144460010
67, -187500.02, 83599.66, 85997.51, 102856.00, 100264.78, 90118.07, -187500.02, -187500.02, 0.000, 0.000, 0.000, 18:41:00.010, 1577144460010
68, -187500.02, 83050.07, 85474.21, 102339.27, 99684.73, 89203.41, -187500.02, -187500.02, 0.000, 0.000, 0.000, 18:41:00.010, 1577144460010
69, -187500.02, 83867.84, 86414.10, 103290.98, 100527.77, 89327.45, -187500.02, -187500.02, 0.000, 0.000, 0.000, 18:41:00.010, 1577144460010
70, -187500.02, 84743.87, 87315.50, 104188.54, 101453.63, 90337.01, -187500.02, -187500.02, 0.000, 0.000, 0.000, 18:41:00.010, 1577144460010
71, -187500.02, 83818.81, 86239.45, 103093.73, 100491.27, 90283.41, -187500.02, -187500.02, 0.000, 0.000, 0.000, 18:41:00.010, 1577144460010
72, -187500.02, 83050.23, 85462.02, 102319.64, 99676.05, 89300.09, -187500.02, -187500.02, 0.000, 0.000, 0.000, 18:41:00.010, 1577144460010
73, -187500.02, 83659.85, 86186.96, 103057.32, 100307.98, 89220.74, -187500.02, -187500.02, 0.000, 0.000, 0.000, 18:41:00.010, 1577144460010
74, -187500.02, 84707.84, 87299.67, 104170.50, 101410.40, 90158.09, -187500.02, -187500.02, 0.154, 0.312, 0.982, 18:41:00.010, 1577144460010
75, -187500.02, 84053.38, 86502.43, 103354.71, 100737.25, 90426.46, -187500.02, -187500.02, 0.000, 0.000, 0.000, 18:41:00.010, 1577144460010
76, -187500.02, 83076.09, 85482.57, 102336.48, 99711.27, 89425.51, -187500.02, -187500.02, 0.000, 0.000, 0.000, 18:41:00.010, 1577144460010
77, -187500.02, 83458.08, 85964.65, 102832.28, 100104.14, 89148.74, -187500.02, -187500.02, 0.000, 0.000, 0.000, 18:41:00.010, 1577144460010
78, -187500.02, 84608.01, 87202.16, 104076.89, 101300.00, 89968.74, -187500.02, -187500.02, 0.000, 0.000, 0.000, 18:41:00.010, 1577144460010
79, -187500.02, 84285.85, 86756.55, 103615.95, 100977.13, 90522.39, -187500.02, -187500.02, 0.000, 0.000, 0.000, 18:41:00.010, 1577144460010
80, -187500.02, 83154.37, 85546.47, 102403.48, 99787.21, 89580.34, -187500.02, -187500.02, 0.000, 0.000, 0.000, 18:41:00.011, 1577144460011
81, -187500.02, 83290.63, 85772.20, 102643.12, 99930.87, 89116.07, -187500.02, -187500.02, 0.000, 0.000, 0.000, 18:41:00.011, 1577144460011
82, -187500.02, 84448.95, 87040.88, 103922.33, 101142.80, 89784.77, -187500.02, -187500.02, 0.000, 0.000, 0.000, 18:41:00.011, 1577144460011
83, -187500.02, 84502.82, 87001.03, 103866.95, 101204.18, 90575.10, -187500.02, -187500.02, 0.000, 0.000, 0.000, 18:41:00.011, 1577144460011
84, -187500.02, 83297.98, 85683.60, 102542.49, 99936.52, 89786.30, -187500.02, -187500.02, 0.156, 0.308, 0.982, 18:41:00.011, 1577144460011
85, -187500.02, 83178.28, 85632.32, 102503.27, 99809.50, 89125.19, -187500.02, -187500.02, 0.000, 0.000, 0.000, 18:41:00.011, 1577144460011
86, -187500.02, 84255.28, 86831.45, 103715.02, 100925.07, 89595.53, -187500.02, -187500.02, 0.000, 0.000, 0.000, 18:41:00.011, 1577144460011
87, -187500.02, 84641.72, 87166.34, 104038.83, 101339.85, 90526.41, -187500.02, -187500.02, 0.000, 0.000, 0.000, 18:41:00.011, 1577144460011
88, -187500.02, 83462.51, 85847.88, 102709.80, 100107.94, 89971.38, -187500.02, -187500.02, 0.000, 0.000, 0.000, 18:41:00.011, 1577144460011
89, -187500.02, 83101.80, 85531.05, 102403.59, 99723.60, 89160.37, -187500.02, -187500.02, 0.000, 0.000, 0.000, 18:41:00.011, 1577144460011
90, -187500.02, 84033.50, 86586.84, 103472.81, 100683.41, 89417.73, -187500.02, -187500.02, 0.000, 0.000, 0.000, 18:41:00.011, 1577144460011
91, -187500.02, 84738.27, 87283.76, 104164.00, 101441.69, 90444.81, -187500.02, -187500.02, 0.000, 0.000, 0.000, 18:41:00.011, 1577144460011
92, -187500.02, 83679.50, 86074.30, 102939.73, 100338.59, 90189.62, -187500.02, -187500.02, 0.000, 0.000, 0.000, 18:41:00.011, 1577144460011
93, -187500.02, 83065.27, 85478.30, 102352.57, 99693.78, 89257.80, -187500.02, -187500.02, 0.000, 0.000, 0.000, 18:41:00.011, 1577144460011
94, -187500.02, 83818.46, 86350.69, 103238.79, 100468.49, 89311.33, -187500.02, -187500.02, 0.158, 0.306, 0.974, 18:41:00.011, 1577144460011
95, -187500.02, 84769.41, 87333.59, 104219.79, 101458.68, 90307.41, -187500.02, -187500.02, 0.000, 0.000, 0.000, 18:41:00.011, 1577144460011
96, -187500.02, 83910.70, 86323.17, 103192.88, 100577.77, 90362.22, -187500.02, -187500.02, 0.000, 0.000, 0.000, 18:41:00.011, 1577144460011
97, -187500.02, 83058.70, 85449.15, 102323.24, 99675.39, 89350.07, -187500.02, -187500.02, 0.000, 0.000, 0.000, 18:41:00.011, 1577144460011
98, -187500.02, 83607.91, 86112.88, 103002.29, 100243.15, 89211.28, -187500.02, -187500.02, 0.000, 0.000, 0.000, 18:41:00.011, 1577144460011
99, -187500.02, 84711.50, 87291.67, 104183.60, 101401.57, 90135.10, -187500.02, -187500.02, 0.000, 0.000, 0.000, 18:41:00.011, 1577144460011
100, -187500.02, 84153.51, 86591.41, 103464.39, 100830.46, 90502.34, -187500.02, -187500.02, 0.000, 0.000, 0.000, 18:41:00.011, 1577144460011
101, -187500.02, 83126.90, 85511.18, 102384.15, 99748.63, 89513.80, -187500.02, -187500.02, 0.000, 0.000, 0.000, 18:41:00.011, 1577144460011
102, -187500.02, 83427.55, 85909.17, 102795.65, 100057.23, 89161.98, -187500.02, -187500.02, 0.000, 0.000, 0.000, 18:41:00.011, 1577144460011
103, -187500.02, 84581.70, 87158.34, 104052.38, 101262.02, 89940.91, -187500.02, -187500.02, 0.000, 0.000, 0.000, 18:41:00.011, 1577144460011
104, -187500.02, 84375.06, 86837.55, 103713.95, 101057.73, 90577.85, -187500.02, -187500.02, 0.158, 0.308, 0.980, 18:41:00.011, 1577144460011
105, -187500.02, 83205.73, 85580.78, 102451.79, 99826.04, 89660.29, -187500.02, -187500.02, 0.000, 0.000, 0.000, 18:41:00.488, 1577144460488
106, -187500.02, 83264.05, 85724.37, 102607.45, 99887.93, 89123.06, -187500.02, -187500.02, 0.000, 0.000, 0.000, 18:41:00.489, 1577144460489
107, -187500.02, 84418.53, 86996.38, 103888.29, 101092.04, 89748.53, -187500.02, -187500.02, 0.000, 0.000, 0.000, 18:41:00.489, 1577144460489
108, -187500.02, 84573.14, 87070.75, 103946.65, 101270.41, 90608.67, -187500.02, -187500.02, 0.000, 0.000, 0.000, 18:41:00.489, 1577144460489
109, -187500.02, 83339.55, 85718.52, 102584.55, 99974.05, 89856.60, -187500.02, -187500.02, 0.000, 0.000, 0.000, 18:41:00.489, 1577144460489
110, -187500.02, 83144.30, 85586.70, 102462.52, 99760.46, 89134.98, -187500.02, -187500.02, 0.000, 0.000, 0.000, 18:41:00.489, 1577144460489
111, -187500.02, 84190.10, 86755.21, 103642.76, 100843.53, 89542.18, -187500.02, -187500.02, 0.000, 0.000, 0.000, 18:41:00.489, 1577144460489
112, -187500.02, 84694.22, 87223.77, 104100.43, 101394.28, 90543.52, -187500.02, -187500.02, 0.000, 0.000, 0.000, 18:41:00.489, 1577144460489
113, -187500.02, 83535.71, 85925.27, 102788.45, 100182.91, 90071.56, -187500.02, -187500.02, 0.000, 0.000, 0.000, 18:41:00.489, 1577144460489
114, -187500.02, 83100.61, 85523.98, 102394.81, 99711.20, 89210.30, -187500.02, -187500.02, 0.156, 0.310, 0.976, 18:41:00.489, 1577144460489
115, -187500.02, 83987.41, 86534.80, 103419.39, 100635.40, 89415.63, -187500.02, -187500.02, 0.000, 0.000, 0.000, 18:41:00.489, 1577144460489
116, -187500.02, 84754.08, 87308.41, 104186.87, 101451.01, 90425.56, -187500.02, -187500.02, 0.000, 0.000, 0.000, 18:41:00.489, 1577144460489
117, -187500.02, 83734.57, 86137.02, 102999.47, 100391.88, 90242.55, -187500.02, -187500.02, 0.000, 0.000, 0.000, 18:41:00.490, 1577144460490
118, -187500.02, 83053.63, 85463.41, 102330.51, 99674.09, 89283.88, -187500.02, -187500.02, 0.000, 0.000, 0.000, 18:41:00.490, 1577144460490
119, -187500.02, 83752.84, 86280.99, 103160.41, 100393.52, 89282.70, -187500.02, -187500.02, 0.000, 0.000, 0.000, 18:41:00.490, 1577144460490
120, -187500.02, 84757.23, 87331.99, 104210.22, 101447.10, 90267.67, -187500.02, -187500.02, 0.000, 0.000, 0.000, 18:41:00.490, 1577144460490
121, -187500.02, 83987.13, 86411.13, 103269.41, 100647.91, 90412.49, -187500.02, -187500.02, 0.000, 0.000, 0.000, 18:41:00.490, 1577144460490
122, -187500.02, 83068.98, 85465.67, 102325.81, 99681.29, 89394.13, -187500.02, -187500.02, 0.000, 0.000, 0.000, 18:41:00.490, 1577144460490
123, -187500.02, 83548.74, 86051.42, 102923.70, 100172.45, 89192.55, -187500.02, -187500.02, 0.000, 0.000, 0.000, 18:41:00.490, 1577144460490
124, -187500.02, 84674.15, 87257.19, 104132.59, 101352.40, 90080.95, -187500.02, -187500.02, 0.000, 0.000, 0.000, 18:41:00.490, 1577144460490
125, -187500.02, 84220.95, 86669.76, 103525.30, 100887.41, 90526.69, -187500.02, -187500.02, 0.160, 0.310, 0.978, 18:41:00.490, 1577144460490
126, -187500.02, 83128.13, 85508.90, 102362.67, 99734.91, 89530.71, -187500.02, -187500.02, 0.000, 0.000, 0.000, 18:41:00.490, 1577144460490
127, -187500.02, 83363.48, 85840.51, 102706.75, 99977.45, 89133.37, -187500.02, -187500.02, 0.000, 0.000, 0.000, 18:41:00.490, 1577144460490
128, -187500.02, 84538.45, 87123.54, 103997.90, 101203.11, 89873.57, -187500.02, -187500.02, 0.000, 0.000, 0.000, 18:41:00.490, 1577144460490
129, -187500.02, 84428.95, 86909.70, 103767.26, 101104.05, 90575.73, -187500.02, -187500.02, 0.000, 0.000, 0.000, 18:41:00.490, 1577144460490
130, -187500.02, 83246.97, 85626.38, 102478.45, 99859.14, 89719.05, -187500.02, -187500.02, 0.000, 0.000, 0.000, 18:41:00.490, 1577144460490
131, -187500.02, 83237.06, 85690.80, 102555.19, 99847.61, 89131.34, -187500.02, -187500.02, 0.000, 0.000, 0.000, 18:41:00.490, 1577144460490
132, -187500.02, 84352.44, 86922.49, 103798.01, 101003.87, 89676.96, -187500.02, -187500.02, 0.000, 0.000, 0.000, 18:41:00.490, 1577144460490
133, -187500.02, 84602.58, 87104.66, 103967.88, 101281.36, 90565.71, -187500.02, -187500.02, 0.000, 0.000, 0.000, 18:41:00.490, 1577144460490
134, -187500.02, 83408.86, 85784.52, 102638.02, 100031.90, 89920.53, -187500.02, -187500.02, 0.000, 0.000, 0.000, 18:41:00.490, 1577144460490
135, -187500.02, 83141.53, 85568.66, 102433.30, 99744.86, 89164.46, -187500.02, -187500.02, 0.166, 0.310, 0.980, 18:41:00.490, 1577144460490
136, -187500.02, 84152.66, 86698.97, 103576.33, 100777.73, 89512.54, -187500.02, -187500.02, 0.000, 0.000, 0.000, 18:41:00.490, 1577144460490
137, -187500.02, 84741.63, 87262.86, 104131.19, 101411.34, 90510.50, -187500.02, -187500.02, 0.000, 0.000, 0.000, 18:41:00.490, 1577144460490
138, -187500.02, 83610.85, 85987.25, 102840.80, 100242.50, 90122.88, -187500.02, -187500.02, 0.000, 0.000, 0.000, 18:41:00.490, 1577144460490
139, -187500.02, 83087.53, 85493.90, 102355.23, 99689.65, 89220.98, -187500.02, -187500.02, 0.000, 0.000, 0.000, 18:41:00.490, 1577144460490
140, -187500.02, 83925.41, 86454.96, 103328.45, 100555.64, 89365.94, -187500.02, -187500.02, 0.000, 0.000, 0.000, 18:41:00.490, 1577144460490
141, -187500.02, 84776.01, 87323.03, 104191.49, 101446.92, 90370.91, -187500.02, -187500.02, 0.000, 0.000, 0.000, 18:41:00.490, 1577144460490
142, -187500.02, 83810.97, 86207.63, 103059.04, 100456.58, 90290.05, -187500.02, -187500.02, 0.000, 0.000, 0.000, 18:41:00.490, 1577144460490
143, -187500.02, 83048.46, 85443.59, 102300.04, 99662.80, 89303.46, -187500.02, -187500.02, 0.000, 0.000, 0.000, 18:41:00.490, 1577144460490
144, -187500.02, 83681.66, 86192.39, 103062.35, 100315.95, 89244.57, -187500.02, -187500.02, 0.000, 0.000, 0.000, 18:41:00.490, 1577144460490
145, -187500.02, 84732.24, 87300.32, 104171.80, 101419.67, 90205.06, -187500.02, -187500.02, 0.166, 0.314, 0.974, 18:41:00.491, 1577144460491
146, -187500.02, 84040.21, 86460.77, 103313.65, 100706.41, 90438.13, -187500.02, -187500.02, 0.000, 0.000, 0.000, 18:41:00.491, 1577144460491
147, -187500.02, 83060.24, 85441.38, 102296.47, 99674.61, 89413.14, -187500.02, -187500.02, 0.000, 0.000, 0.000, 18:41:00.491, 1577144460491
148, -187500.02, 83452.56, 85937.00, 102805.48, 100081.07, 89139.29, -187500.02, -187500.02, 0.000, 0.000, 0.000, 18:41:00.491, 1577144460491
149, -187500.02, 84612.59, 87184.14, 104059.17, 101288.45, 89993.33, -187500.02, -187500.02, 0.000, 0.000, 0.000, 18:41:00.491, 1577144460491
150, -187500.02, 84269.63, 86713.10, 103571.03, 100942.06, 90534.93, -187500.02, -187500.02, 0.000, 0.000, 0.000, 18:41:00.491, 1577144460491
151, -187500.02, 83155.04, 85525.37, 102380.75, 99770.23, 89581.34, -187500.02, -187500.02, 0.000, 0.000, 0.000, 18:41:00.491, 1577144460491
152, -187500.02, 83331.19, 85794.13, 102662.09, 99949.17, 89126.13, -187500.02, -187500.02, 0.000, 0.000, 0.000, 18:41:00.491, 1577144460491
153, -187500.02, 84505.88, 87078.08, 103953.67, 101173.02, 89832.75, -187500.02, -187500.02, 0.000, 0.000, 0.000, 18:41:00.491, 1577144460491
154, -187500.02, 84490.66, 86967.23, 103825.28, 101171.03, 90589.38, -187500.02, -187500.02, 0.000, 0.000, 0.000, 18:41:00.491, 1577144460491
155, -187500.02, 83280.16, 85648.33, 102497.77, 99896.73, 89767.69, -187500.02, -187500.02, 0.164, 0.314, 0.978, 18:41:00.491, 1577144460491
156, -187500.02, 83211.98, 85654.01, 102515.38, 99827.16, 89140.61, -187500.02, -187500.02, 0.000, 0.000, 0.000, 18:41:00.491, 1577144460491
157, -187500.02, 84298.10, 86863.66, 103735.60, 100958.42, 89625.55, -187500.02, -187500.02, 0.000, 0.000, 0.000, 18:41:00.491, 1577144460491
158, -187500.02, 84657.43, 87165.41, 104024.10, 101344.46, 90571.81, -187500.02, -187500.02, 0.000, 0.000, 0.000, 18:41:00.491, 1577144460491
159, -187500.02, 83466.41, 85840.48, 102687.95, 100095.80, 89982.33, -187500.02, -187500.02, 0.000, 0.000, 0.000, 18:41:00.491, 1577144460491
160, -187500.02, 83115.07, 85533.46, 102389.65, 99720.09, 89161.58, -187500.02, -187500.02, 0.000, 0.000, 0.000, 18:41:00.491, 1577144460491
161, -187500.02, 84063.16, 86605.20, 103474.47, 100699.12, 89447.27, -187500.02, -187500.02, 0.000, 0.000, 0.000, 18:41:00.491, 1577144460491
162, -187500.02, 84745.43, 87278.51, 104141.00, 101435.52, 90470.23, -187500.02, -187500.02, 0.000, 0.000, 0.000, 18:41:00.491, 1577144460491
163, -187500.02, 83663.34, 86046.59, 102893.44, 100304.66, 90169.84, -187500.02, -187500.02, 0.000, 0.000, 0.000, 18:41:00.491, 1577144460491
164, -187500.02, 83073.20, 85474.86, 102329.23, 99678.52, 89242.58, -187500.02, -187500.02, 0.000, 0.000, 0.000, 18:41:00.491, 1577144460491
165, -187500.02, 83841.91, 86363.59, 103232.84, 100476.43, 89316.41, -187500.02, -187500.02, 0.168, 0.310, 0.978, 18:41:00.491, 1577144460491
166, -187500.02, 84757.90, 87309.30, 104177.07, 101444.73, 90315.93, -187500.02, -187500.02, 0.000, 0.000, 0.000, 18:41:00.491, 1577144460491
167, -187500.02, 83884.33, 86281.46, 103131.64, 100536.02, 90329.43, -187500.02, -187500.02, 0.000, 0.000, 0.000, 18:41:00.492, 1577144460492
168, -187500.02, 83067.77, 85452.30, 102306.59, 99672.66, 89331.96, -187500.02, -187500.02, 0.000, 0.000, 0.000, 18:41:00.492, 1577144460492
169, -187500.02, 83645.05, 86144.65, 103013.46, 100274.15, 89227.34, -187500.02, -187500.02, 0.000, 0.000, 0.000, 18:41:00.492, 1577144460492
170, -187500.02, 84721.58, 87286.71, 104158.14, 101404.30, 90154.84, -187500.02, -187500.02, 0.000, 0.000, 0.000, 18:41:00.492, 1577144460492
171, -187500.02, 84111.24, 86531.06, 103382.78, 100770.11, 90458.89, -187500.02, -187500.02, 0.000, 0.000, 0.000, 18:41:00.492, 1577144460492
172, -187500.02, 83094.69, 85466.45, 102318.68, 99714.02, 89462.66, -187500.02, -187500.02, 0.000, 0.000, 0.000, 18:41:00.492, 1577144460492
173, -187500.02, 83432.53, 85905.44, 102770.01, 100061.73, 89155.09, -187500.02, -187500.02, 0.000, 0.000, 0.000, 18:41:00.492, 1577144460492
174, -187500.02, 84598.13, 87171.98, 104042.72, 101276.87, 89952.96, -187500.02, -187500.02, 0.000, 0.000, 0.000, 18:41:00.492, 1577144460492
175, -187500.02, 84349.29, 86807.18, 103659.30, 101032.88, 90557.15, -187500.02, -187500.02, 0.166, 0.308, 0.974, 18:41:00.492, 1577144460492
176, -187500.02, 83210.13, 85580.47, 102427.71, 99830.58, 89652.60, -187500.02, -187500.02, 0.000, 0.000, 0.000, 18:41:00.492, 1577144460492
177, -187500.02, 83296.79, 85753.00, 102611.38, 99923.45, 89136.81, -187500.02, -187500.02, 0.000, 0.000, 0.000, 18:41:00.492, 1577144460492
178, -187500.02, 84435.90, 87007.72, 103875.35, 101114.73, 89758.52, -187500.02, -187500.02, 0.000, 0.000, 0.000, 18:41:00.492, 1577144460492
179, -187500.02, 84533.27, 87020.99, 103872.42, 101233.66, 90574.30, -187500.02, -187500.02, 0.000, 0.000, 0.000, 18:41:00.492, 1577144460492
180, -187500.02, 83326.30, 85696.27, 102538.89, 99966.77, 89827.81, -187500.02, -187500.02, 0.000, 0.000, 0.000, 18:41:00.492, 1577144460492
181, -187500.02, 83161.88, 85594.82, 102449.48, 99796.04, 89136.32, -187500.02, -187500.02, 0.000, 0.000, 0.000, 18:41:00.493, 1577144460493
182, -187500.02, 84217.48, 86776.17, 103643.00, 100895.62, 89565.25, -187500.02, -187500.02, 0.000, 0.000, 0.000, 18:41:00.493, 1577144460493
183, -187500.02, 84680.34, 87197.08, 104053.42, 101392.56, 90529.66, -187500.02, -187500.02, 0.000, 0.000, 0.000, 18:41:00.493, 1577144460493
184, -187500.02, 83517.29, 85890.53, 102733.22, 100172.87, 90037.31, -187500.02, -187500.02, 0.000, 0.000, 0.000, 18:41:00.493, 1577144460493
185, -187500.02, 83091.69, 85501.08, 102353.62, 99729.08, 89184.27, -187500.02, -187500.02, 0.162, 0.308, 0.978, 18:41:00.493, 1577144460493
186, -187500.02, 84001.77, 86536.14, 103402.07, 100672.37, 89413.23, -187500.02, -187500.02, 0.000, 0.000, 0.000, 18:41:00.493, 1577144460493
187, -187500.02, 84748.18, 87284.14, 104144.13, 101461.92, 90424.16, -187500.02, -187500.02, 0.000, 0.000, 0.000, 18:41:00.493, 1577144460493
188, -187500.02, 83715.80, 86098.52, 102942.30, 100391.91, 90214.79, -187500.02, -187500.02, 0.000, 0.000, 0.000, 18:41:00.493, 1577144460493
189, -187500.02, 83056.29, 85451.30, 102301.61, 99703.33, 89263.43, -187500.02, -187500.02, 0.000, 0.000, 0.000, 18:41:00.493, 1577144460493
190, -187500.02, 83767.25, 86281.66, 103145.61, 100439.04, 89278.92, -187500.02, -187500.02, 0.000, 0.000, 0.000, 18:41:00.493, 1577144460493
191, -187500.02, 84753.88, 87310.85, 104173.59, 101478.62, 90273.84, -187500.02, -187500.02, 0.000, 0.000, 0.000, 18:41:00.493, 1577144460493
192, -187500.02, 83949.70, 86354.46, 103197.42, 100647.69, 90382.05, -187500.02, -187500.02, 0.000, 0.000, 0.000, 18:41:00.493, 1577144460493
193, -187500.02, 83069.65, 85451.84, 102297.09, 99721.99, 89379.03, -187500.02, -187500.02, 0.000, 0.000, 0.000, 18:41:00.493, 1577144460493
194, -187500.02, 83565.48, 86057.95, 102915.74, 100238.92, 89197.59, -187500.02, -187500.02, 0.000, 0.000, 0.000, 18:41:00.493, 1577144460493
195, -187500.02, 84672.27, 87243.30, 104104.09, 101397.03, 90072.92, -187500.02, -187500.02, 0.164, 0.310, 0.976, 18:41:00.493, 1577144460493
196, -187500.02, 84174.25, 86608.47, 103449.91, 100887.23, 90484.20, -187500.02, -187500.02, 0.000, 0.000, 0.000, 18:41:00.493, 1577144460493
197, -187500.02, 83110.80, 85484.35, 102323.96, 99768.39, 89510.98, -187500.02, -187500.02, 0.000, 0.000, 0.000, 18:41:00.493, 1577144460493
198, -187500.02, 83379.91, 85851.80, 102705.28, 100049.87, 89135.98, -187500.02, -187500.02, 0.000, 0.000, 0.000, 18:41:00.493, 1577144460493
199, -187500.02, 84547.48, 87122.76, 103984.58, 101273.85, 89888.72, -187500.02, -187500.02, 0.000, 0.000, 0.000, 18:41:00.493, 1577144460493
200, -187500.02, 84400.03, 86862.20, 103706.01, 101122.87, 90566.70, -187500.02, -187500.02, 0.000, 0.000, 0.000, 18:41:00.493, 1577144460493
201, -187500.02, 83225.35, 85597.63, 102437.17, 99897.79, 89696.56, -187500.02, -187500.02, 0.000, 0.000, 0.000, 18:41:00.493, 1577144460493
202, -187500.02, 83232.04, 85685.14, 102535.30, 99909.41, 89129.77, -187500.02, -187500.02, 0.000, 0.000, 0.000, 18:41:00.493, 1577144460493
203, -187500.02, 84364.29, 86937.04, 103797.38, 101084.60, 89700.37, -187500.02, -187500.02, 0.000, 0.000, 0.000, 18:41:00.493, 1577144460493
204, -187500.02, 84588.37, 87090.24, 103936.03, 101334.06, 90583.08, -187500.02, -187500.02, 0.000, 0.000, 0.000, 18:41:00.493, 1577144460493
205, -187500.02, 83370.88, 85749.70, 102584.47, 100056.13, 89888.99, -187500.02, -187500.02, 0.162, 0.314, 0.976, 18:41:00.493, 1577144460493
206, -187500.02, 83119.92, 85558.14, 102401.90, 99796.83, 89141.95, -187500.02, -187500.02, 0.000, 0.000, 0.000, 18:41:00.493, 1577144460493
207, -187500.02, 84142.16, 86704.94, 103559.72, 100853.15, 89516.01, -187500.02, -187500.02, 0.000, 0.000, 0.000, 18:41:00.493, 1577144460493
208, -187500.02, 84685.73, 87220.93, 104064.47, 101429.51, 90490.77, -187500.02, -187500.02, 0.000, 0.000, 0.000, 18:41:00.493, 1577144460493
209, -187500.02, 83545.45, 85936.11, 102763.66, 100240.75, 90070.66, -187500.02, -187500.02, 0.000, 0.000, 0.000, 18:41:00.493, 1577144460493
210, -187500.02, 83055.84, 85476.94, 102312.07, 99726.98, 89194.45, -187500.02, -187500.02, 0.000, 0.000, 0.000, 18:41:00.493, 1577144460493
211, -187500.02, 83911.82, 86457.57, 103306.32, 100614.52, 89364.20, -187500.02, -187500.02, 0.000, 0.000, 0.000, 18:41:00.493, 1577144460493
212, -187500.02, 84745.43, 87306.76, 104151.15, 101497.19, 90385.87, -187500.02, -187500.02, 0.000, 0.000, 0.000, 18:41:00.493, 1577144460493
213, -187500.02, 83772.16, 86179.20, 103006.73, 100482.80, 90261.75, -187500.02, -187500.02, 0.000, 0.000, 0.000, 18:41:00.493, 1577144460493
214, -187500.02, 83043.79, 85451.74, 102285.00, 99718.02, 89295.02, -187500.02, -187500.02, 0.000, 0.000, 0.000, 18:41:00.493, 1577144460493
215, -187500.02, 83694.27, 86220.66, 103067.98, 100389.86, 89252.68, -187500.02, -187500.02, 0.160, 0.308, 0.976, 18:41:00.493, 1577144460493
216, -187500.02, 84731.99, 87310.29, 104159.44, 101472.76, 90220.53, -187500.02, -187500.02, 0.000, 0.000, 0.000, 18:41:00.493, 1577144460493
217, -187500.02, 84025.13, 86454.00, 103285.77, 100746.46, 90432.43, -187500.02, -187500.02, 0.000, 0.000, 0.000, 18:41:00.494, 1577144460494
218, -187500.02, 83072.22, 85465.87, 102301.49, 99748.63, 89418.51, -187500.02, -187500.02, 0.000, 0.000, 0.000, 18:41:00.494, 1577144460494
219, -187500.02, 83501.73, 86001.20, 102851.37, 100191.67, 89178.23, -187500.02, -187500.02, 0.000, 0.000, 0.000, 18:41:00.494, 1577144460494
220, -187500.02, 84649.25, 87232.44, 104088.52, 101384.34, 90028.64, -187500.02, -187500.02, 0.000, 0.000, 0.000, 18:41:00.494, 1577144460494
221, -187500.02, 84250.00, 86703.46, 103541.23, 100981.00, 90523.98, -187500.02, -187500.02, 0.000, 0.000, 0.000, 18:41:00.494, 1577144460494
222, -187500.02, 83148.22, 85533.35, 102369.84, 99828.01, 89579.93, -187500.02, -187500.02, 0.000, 0.000, 0.000, 18:41:00.494, 1577144460494
223, -187500.02, 83339.62, 85815.90, 102665.94, 100024.59, 89143.94, -187500.02, -187500.02, 0.000, 0.000, 0.000, 18:41:00.494, 1577144460494
224, -187500.02, 84498.33, 87078.55, 103936.26, 101223.07, 89829.18, -187500.02, -187500.02, 0.000, 0.000, 0.000, 18:41:00.494, 1577144460494
225, -187500.02, 84455.64, 86937.20, 103777.58, 101193.85, 90566.70, -187500.02, -187500.02, 0.162, 0.306, 0.976, 18:41:00.968, 1577144460968
226, -187500.02, 83275.78, 85654.74, 102487.93, 99952.77, 89751.82, -187500.02, -187500.02, 0.000, 0.000, 0.000, 18:41:00.969, 1577144460969
227, -187500.02, 83220.55, 85672.96, 102517.08, 99883.62, 89123.48, -187500.02, -187500.02, 0.000, 0.000, 0.000, 18:41:00.969, 1577144460969
228, -187500.02, 84309.64, 86885.92, 103739.52, 101029.19, 89639.14, -187500.02, -187500.02, 0.000, 0.000, 0.000, 18:41:00.969, 1577144460969
229, -187500.02, 84632.82, 87150.99, 103989.12, 101384.85, 90569.51, -187500.02, -187500.02, 0.000, 0.000, 0.000, 18:41:00.969, 1577144460969
230, -187500.02, 83439.28, 85823.61, 102649.80, 100126.55, 89948.42, -187500.02, -187500.02, 0.000, 0.000, 0.000, 18:41:00.969, 1577144460969
231, -187500.02, 83119.38, 85554.61, 102391.69, 99792.16, 89154.09, -187500.02, -187500.02, 0.000, 0.000, 0.000, 18:41:00.969, 1577144460969
232, -187500.02, 84092.67, 86654.72, 103504.45, 100802.66, 89477.98, -187500.02, -187500.02, 0.000, 0.000, 0.000, 18:41:00.969, 1577144460969
233, -187500.02, 84736.71, 87281.55, 104123.61, 101488.52, 90492.73, -187500.02, -187500.02, 0.000, 0.000, 0.000, 18:41:00.969, 1577144460969
234, -187500.02, 83632.94, 86032.58, 102860.84, 100339.97, 90149.77, -187500.02, -187500.02, 0.000, 0.000, 0.000, 18:41:00.969, 1577144460969
235, -187500.02, 83068.60, 85488.71, 102323.55, 99737.15, 89220.47, -187500.02, -187500.02, 0.158, 0.306, 0.972, 18:41:00.969, 1577144460969
236, -187500.02, 83871.66, 86414.61, 103263.58, 100575.11, 89338.42, -187500.02, -187500.02, 0.000, 0.000, 0.000, 18:41:00.969, 1577144460969
237, -187500.02, 84786.40, 87357.55, 104203.02, 101539.81, 90363.96, -187500.02, -187500.02, 0.000, 0.000, 0.000, 18:41:00.969, 1577144460969
238, -187500.02, 83867.92, 86286.54, 103113.55, 100585.33, 90334.69, -187500.02, -187500.02, 0.000, 0.000, 0.000, 18:41:00.969, 1577144460969
239, -187500.02, 83061.90, 85470.66, 102302.32, 99737.28, 89338.94, -187500.02, -187500.02, 0.000, 0.000, 0.000, 18:41:00.969, 1577144460969
240, -187500.02, 83651.05, 86174.27, 103019.74, 100342.50, 89232.88, -187500.02, -187500.02, 0.000, 0.000, 0.000, 18:41:00.969, 1577144460969
241, -187500.02, 84727.88, 87317.51, 104165.67, 101473.01, 90168.79, -187500.02, -187500.02, 0.000, 0.000, 0.000, 18:41:00.969, 1577144460969
242, -187500.02, 84086.25, 86532.88, 103362.71, 100820.16, 90459.92, -187500.02, -187500.02, 0.000, 0.000, 0.000, 18:41:00.969, 1577144460969
243, -187500.02, 83098.51, 85496.63, 102327.02, 99778.70, 89470.37, -187500.02, -187500.02, 0.000, 0.000, 0.000, 18:41:00.969, 1577144460969
244, -187500.02, 83455.40, 85957.95, 102802.20, 100145.38, 89159.27, -187500.02, -187500.02, 0.000, 0.000, 0.000, 18:41:00.970, 1577144460970
245, -187500.02, 84609.71, 87208.70, 104059.50, 101348.88, 89968.09, -187500.02, -187500.02, 0.160, 0.308, 0.976, 18:41:00.970, 1577144460970
246, -187500.02, 84323.79, 86801.09, 103633.66, 101058.31, 90551.90, -187500.02, -187500.02, 0.000, 0.000, 0.000, 18:41:00.970, 1577144460970
247, -187500.02, 83184.80, 85581.98, 102411.13, 99864.53, 89627.61, -187500.02, -187500.02, 0.000, 0.000, 0.000, 18:41:00.970, 1577144460970
248, -187500.02, 83297.73, 85783.24, 102625.48, 99990.81, 89142.40, -187500.02, -187500.02, 0.000, 0.000, 0.000, 18:41:00.970, 1577144460970
249, -187500.02, 84453.96, 87050.23, 103901.88, 101185.85, 89786.66, -187500.02, -187500.02, 0.000, 0.000, 0.000, 18:41:00.970, 1577144460970
250, -187500.02, 84522.05, 87031.90, 103868.77, 101275.77, 90586.97, -187500.02, -187500.02, 0.000, 0.000, 0.000, 18:41:00.970, 1577144460970
251, -187500.02, 83322.90, 85719.65, 102548.15, 100014.06, 89820.19, -187500.02, -187500.02, 0.000, 0.000, 0.000, 18:41:00.970, 1577144460970
252, -187500.02, 83187.67, 85652.80, 102492.05, 99871.46, 89144.84, -187500.02, -187500.02, 0.000, 0.000, 0.000, 18:41:00.970, 1577144460970
253, -187500.02, 84251.16, 86839.05, 103689.65, 100974.49, 89593.99, -187500.02, -187500.02, 0.000, 0.000, 0.000, 18:41:00.970, 1577144460970
254, -187500.02, 84664.90, 87207.41, 104046.92, 101423.16, 90545.15, -187500.02, -187500.02, 0.000, 0.000, 0.000, 18:41:00.970, 1577144460970
255, -187500.02, 83485.62, 85890.22, 102717.44, 100188.52, 90013.87, -187500.02, -187500.02, 0.162, 0.312, 0.980, 18:41:00.970, 1577144460970
0, -187500.02, 83089.21, 85537.40, 102375.73, 99772.02, 89177.42, -187500.02, -187500.02, 0.000, 0.000, 0.000, 18:41:00.970, 1577144460970
1, -187500.02, 84005.19, 86576.48, 103428.49, 100715.98, 89405.61, -187500.02, -187500.02, 0.000, 0.000, 0.000, 18:41:00.970, 1577144460970
2, -187500.02, 84736.69, 87302.73, 104149.16, 101491.27, 90433.39, -187500.02, -187500.02, 0.000, 0.000, 0.000, 18:41:00.970, 1577144460970
3, -187500.02, 83681.44, 86097.60, 102929.40, 100395.34, 90191.19, -187500.02, -187500.02, 0.000, 0.000, 0.000, 18:41:00.970, 1577144460970
4, -187500.02, 83054.43, 85483.38, 102322.13, 99727.40, 89238.76, -187500.02, -187500.02, 0.000, 0.000, 0.000, 18:41:00.970, 1577144460970
5, -187500.02, 83777.13, 86324.65, 103177.44, 100477.70, 89264.39, -187500.02, -187500.02, 0.000, 0.000, 0.000, 18:41:00.970, 1577144460970
6, -187500.02, 84740.34, 87328.51, 104180.54, 101505.30, 90286.76, -187500.02, -187500.02, 0.000, 0.000, 0.000, 18:41:00.970, 1577144460970
7, -187500.02, 83922.35, 86359.11, 103193.93, 100651.00, 90373.66, -187500.02, -187500.02, 0.000, 0.000, 0.000, 18:41:00.971, 1577144460971
8, -187500.02, 83058.92, 85475.37, 102315.48, 99742.16, 89364.15, -187500.02, -187500.02, 0.000, 0.000, 0.000, 18:41:00.971, 1577144460971
9, -187500.02, 83567.05, 86095.07, 102949.65, 100270.95, 89190.77, -187500.02, -187500.02, 0.000, 0.000, 0.000, 18:41:00.971, 1577144460971
10, -187500.02, 84682.60, 87283.05, 104143.14, 101436.88, 90101.64, -187500.02, -187500.02, 0.156, 0.312, 0.976, 18:41:00.971, 1577144460971
11, -187500.02, 84153.91, 86612.36, 103455.74, 100895.15, 90489.38, -187500.02, -187500.02, 0.000, 0.000, 0.000, 18:41:00.971, 1577144460971
12, -187500.02, 83117.59, 85520.09, 102364.70, 99802.81, 89498.57, -187500.02, -187500.02, 0.000, 0.000, 0.000, 18:41:00.971, 1577144460971
13, -187500.02, 83394.78, 85895.92, 102754.56, 100087.29, 89132.98, -187500.02, -187500.02, 0.000, 0.000, 0.000, 18:41:00.971, 1577144460971
14, -187500.02, 84552.73, 87151.95, 104019.67, 101295.30, 89911.41, -187500.02, -187500.02, 0.000, 0.000, 0.000, 18:41:00.971, 1577144460971
15, -187500.02, 84381.27, 86867.26, 103719.34, 101131.60, 90570.80, -187500.02, -187500.02, 0.000, 0.000, 0.000, 18:41:00.971, 1577144460971
16, -187500.02, 83210.65, 85603.98, 102452.95, 99902.77, 89675.76, -187500.02, -187500.02, 0.000, 0.000, 0.000, 18:41:00.971, 1577144460971
17, -187500.02, 83236.17, 85711.07, 102572.53, 99928.45, 89119.20, -187500.02, -187500.02, 0.000, 0.000, 0.000, 18:41:00.971, 1577144460971
18, -187500.02, 84379.27, 86970.16, 103842.54, 101106.13, 89707.27, -187500.02, -187500.02, 0.000, 0.000, 0.000, 18:41:00.971, 1577144460971
19, -187500.02, 84571.84, 87086.06, 103944.52, 101320.99, 90579.84, -187500.02, -187500.02, 0.000, 0.000, 0.000, 18:41:00.971, 1577144460971
20, -187500.02, 83356.09, 85752.94, 102602.17, 100062.99, 89886.95, -187500.02, -187500.02, 0.156, 0.310, 0.974, 18:41:00.971, 1577144460971
21, -187500.02, 83139.19, 85593.25, 102452.44, 99828.99, 89149.86, -187500.02, -187500.02, 0.000, 0.000, 0.000, 18:41:00.971, 1577144460971
22, -187500.02, 84162.90, 86738.24, 103611.04, 100886.30, 89530.20, -187500.02, -187500.02, 0.000, 0.000, 0.000, 18:41:00.971, 1577144460971
23, -187500.02, 84685.77, 87228.75, 104093.61, 101444.93, 90519.71, -187500.02, -187500.02, 0.000, 0.000, 0.000, 18:41:00.971, 1577144460971
24, -187500.02, 83533.02, 85933.16, 102786.04, 100243.39, 90073.15, -187500.02, -187500.02, 0.000, 0.000, 0.000, 18:41:00.971, 1577144460971
25, -187500.02, 83064.87, 85497.86, 102360.62, 99750.91, 89203.04, -187500.02, -187500.02, 0.000, 0.000, 0.000, 18:41:00.971, 1577144460971
26, -187500.02, 83948.68, 86506.23, 103383.84, 100664.25, 89394.66, -187500.02, -187500.02, 0.000, 0.000, 0.000, 18:41:00.971, 1577144460971
27, -187500.02, 84759.20, 87329.89, 104203.96, 101522.47, 90418.39, -187500.02, -187500.02, 0.000, 0.000, 0.000, 18:41:00.971, 1577144460971
28, -187500.02, 83760.30, 86178.89, 103038.25, 100481.13, 90261.33, -187500.02, -187500.02, 0.000, 0.000, 0.000, 18:41:00.971, 1577144460971
29, -187500.02, 83040.51, 85458.61, 102325.30, 99723.13, 89277.52, -187500.02, -187500.02, 0.000, 0.000, 0.000, 18:41:00.971, 1577144460971
30, -187500.02, 83715.51, 86253.63, 103135.75, 100425.73, 89251.98, -187500.02, -187500.02, 0.158, 0.312, 0.978, 18:41:00.971, 1577144460971
31, -187500.02, 84733.02, 87320.98, 104204.16, 101496.54, 90236.63, -187500.02, -187500.02, 0.000, 0.000, 0.000, 18:41:00.971, 1577144460971
32, -187500.02, 83985.52, 86420.58, 103285.93, 100723.15, 90420.45, -187500.02, -187500.02, 0.000, 0.000, 0.000, 18:41:00.971, 1577144460971
33, -187500.02, 83069.90, 85473.16, 102343.23, 99762.72, 89420.20, -187500.02, -187500.02, 0.000, 0.000, 0.000, 18:41:00.971, 1577144460971
34, -187500.02, 83520.04, 86030.79, 102914.23, 100226.96, 89192.64, -187500.02, -187500.02, 0.000, 0.000, 0.000, 18:41:00.971, 1577144460971
35, -187500.02, 84652.24, 87247.08, 104135.43, 101409.62, 90058.75, -187500.02, -187500.02, 0.000, 0.000, 0.000, 18:41:00.971, 1577144460971
36, -187500.02, 84229.26, 86689.98, 103560.30, 100979.39, 90545.55, -187500.02, -187500.02, 0.000, 0.000, 0.000, 18:41:00.971, 1577144460971
37, -187500.02, 83136.87, 85529.15, 102398.03, 99829.39, 89575.20, -187500.02, -187500.02, 0.000, 0.000, 0.000, 18:41:00.971, 1577144460971
38, -187500.02, 83348.63, 85837.52, 102719.98, 100050.45, 89151.18, -187500.02, -187500.02, 0.000, 0.000, 0.000, 18:41:00.971, 1577144460971
39, -187500.02, 84511.63, 87108.79, 104000.18, 101258.16, 89851.55, -187500.02, -187500.02, 0.000, 0.000, 0.000, 18:41:00.971, 1577144460971
40, -187500.02, 84439.84, 86933.91, 103809.37, 101199.15, 90580.62, -187500.02, -187500.02, 0.158, 0.314, 0.978, 18:41:00.971, 1577144460971
41, -187500.02, 83251.05, 85646.12, 102514.35, 99957.09, 89761.09, -187500.02, -187500.02, 0.000, 0.000, 0.000, 18:41:00.971, 1577144460971
42, -187500.02, 83220.50, 85688.38, 102566.05, 99914.51, 89162.45, -187500.02, -187500.02, 0.000, 0.000, 0.000, 18:41:00.971, 1577144460971
43, -187500.02, 84337.45, 86925.57, 103813.30, 101080.69, 89703.49, -187500.02, -187500.02, 0.000, 0.000, 0.000, 18:41:00.971, 1577144460971
44, -187500.02, 84610.98, 87134.83, 104008.68, 101373.63, 90589.88, -187500.02, -187500.02, 0.000, 0.000, 0.000, 18:41:00.971, 1577144460971
45, -187500.02, 83399.14, 85791.78, 102655.95, 100104.70, 89937.13, -187500.02, -187500.02, 0.000, 0.000, 0.000, 18:41:00.972, 1577144460972
46, -187500.02, 83114.04, 85557.13, 102433.08, 99812.77, 89173.63, -187500.02, -187500.02, 0.000, 0.000, 0.000, 18:41:00.972, 1577144460972
47, -187500.02, 84112.09, 86680.04, 103570.00, 100845.99, 89520.30, -187500.02, -187500.02, 0.000, 0.000, 0.000, 18:41:00.972, 1577144460972
48, -187500.02, 84720.91, 87269.90, 104151.41, 101492.80, 90515.76, -187500.02, -187500.02, 0.000, 0.000, 0.000, 18:41:00.972, 1577144460972
49, -187500.02, 83608.38, 86011.88, 102879.24, 100326.61, 90146.91, -187500.02, -187500.02, 0.000, 0.000, 0.000, 18:41:00.972, 1577144460972
50, -187500.02, 83067.84, 85494.93, 102370.80, 99757.53, 89240.88, -187500.02, -187500.02, 0.164, 0.310, 0.976, 18:41:00.972, 1577144460972
51, -187500.02, 83876.73, 86425.99, 103316.46, 100600.51, 89358.36, -187500.02, -187500.02, 0.000, 0.000, 0.000, 18:41:00.972, 1577144460972
52, -187500.02, 84744.24, 87313.29, 104200.72, 101507.52, 90357.10, -187500.02, -187500.02, 0.000, 0.000, 0.000, 18:41:00.972, 1577144460972
53, -187500.02, 83817.90, 86232.20, 103102.73, 100545.48, 90304.62, -187500.02, -187500.02, 0.000, 0.000, 0.000, 18:41:00.972, 1577144460972
54, -187500.02, 83047.44, 85456.55, 102332.79, 99743.47, 89328.05, -187500.02, -187500.02, 0.000, 0.000, 0.000, 18:41:00.972, 1577144460972
55, -187500.02, 83661.55, 86186.60, 103076.18, 100377.70, 89255.07, -187500.02, -187500.02, 0.000, 0.000, 0.000, 18:41:00.972, 1577144460972
56, -187500.02, 84720.69, 87308.17, 104199.72, 101489.27, 90200.69, -187500.02, -187500.02, 0.000, 0.000, 0.000, 18:41:00.972, 1577144460972
57, -187500.02, 84071.91, 86511.26, 103383.37, 100817.59, 90471.01, -187500.02, -187500.02, 0.000, 0.000, 0.000, 18:41:00.972, 1577144460972
58, -187500.02, 83094.82, 85493.50, 102367.88, 99790.39, 89471.15, -187500.02, -187500.02, 0.000, 0.000, 0.000, 18:41:00.972, 1577144460972
59, -187500.02, 83469.46, 85971.22, 102858.68, 100175.82, 89176.26, -187500.02, -187500.02, 0.000, 0.000, 0.000, 18:41:00.972, 1577144460972
60, -187500.02, 84621.82, 87215.07, 104108.56, 101381.54, 90011.09, -187500.02, -187500.02, 0.164, 0.308, 0.976, 18:41:00.972, 1577144460972
61, -187500.02, 84297.39, 86764.41, 103639.56, 101051.52, 90562.23, -187500.02, -187500.02, 0.000, 0.000, 0.000, 18:41:00.972, 1577144460972
62, -187500.02, 83168.78, 85557.45, 102430.46, 99865.20, 89626.98, -187500.02, -187500.02, 0.000, 0.000, 0.000, 18:41:00.972, 1577144460972
63, -187500.02, 83305.48, 85783.04, 102669.31, 100010.51, 89155.16, -187500.02, -187500.02, 0.000, 0.000, 0.000, 18:41:00.972, 1577144460972
64, -187500.02, 84464.76, 87053.52, 103950.05, 101219.88, 89825.66, -187500.02, -187500.02, 0.000, 0.000, 0.000, 18:41:00.972, 1577144460972
65, -187500.02, 84489.84, 86986.08, 103867.03, 101258.85, 90603.15, -187500.02, -187500.02, 0.000, 0.000, 0.000, 18:41:00.972, 1577144460972
66, -187500.02, 83285.70, 85672.60, 102545.58, 99993.63, 89803.23, -187500.02, -187500.02, 0.000, 0.000, 0.000, 18:41:00.972, 1577144460972
67, -187500.02, 83181.63, 85637.78, 102522.76, 99881.96, 89153.22, -187500.02, -187500.02, 0.000, 0.000, 0.000, 18:41:00.972, 1577144460972
68, -187500.02, 84261.45, 86839.20, 103736.07, 101004.11, 89627.61, -187500.02, -187500.02, 0.000, 0.000, 0.000, 18:41:00.972, 1577144460972
69, -187500.02, 84645.61, 87171.55, 104056.89, 101419.90, 90569.76, -187500.02, -187500.02, 0.000, 0.000, 0.000, 18:41:00.972, 1577144460972
70, -187500.02, 83459.71, 85848.06, 102721.59, 100175.77, 90007.52, -187500.02, -187500.02, 0.162, 0.306, 0.976, 18:41:00.972, 1577144460972
71, -187500.02, 83097.55, 85531.27, 102414.30, 99795.08, 89190.19, -187500.02, -187500.02, 0.000, 0.000, 0.000, 18:41:00.972, 1577144460972
72, -187500.02, 84042.09, 86600.31, 103496.80, 100774.76, 89468.27, -187500.02, -187500.02, 0.000, 0.000, 0.000, 18:41:00.972, 1577144460972
73, -187500.02, 84744.13, 87294.63, 104183.38, 101515.54, 90480.66, -187500.02, -187500.02, 0.000, 0.000, 0.000, 18:41:00.972, 1577144460972
74, -187500.02, 83669.10, 86067.55, 102940.20, 100383.54, 90191.14, -187500.02, -187500.02, 0.000, 0.000, 0.000, 18:41:00.972, 1577144460972
75, -187500.02, 83050.92, 85464.87, 102346.04, 99743.12, 89252.91, -187500.02, -187500.02, 0.000, 0.000, 0.000, 18:41:00.972, 1577144460972
76, -187500.02, 83805.43, 86343.38, 103238.50, 100531.08, 89318.04, -187500.02, -187500.02, 0.000, 0.000, 0.000, 18:41:00.972, 1577144460972
77, -187500.02, 84746.32, 87319.37, 104212.73, 101522.27, 90324.65, -187500.02, -187500.02, 0.000, 0.000, 0.000, 18:41:00.972, 1577144460972
78, -187500.02, 83893.91, 86312.91, 103187.88, 100639.40, 90375.03, -187500.02, -187500.02, 0.000, 0.000, 0.000, 18:41:00.972, 1577144460972
79, -187500.02, 83059.70, 85458.95, 102337.26, 99758.60, 89377.18, -187500.02, -187500.02, 0.000, 0.000, 0.000, 18:41:00.972, 1577144460972
80, -187500.02, 83600.53, 86112.75, 103005.13, 100326.16, 89239.16, -187500.02, -187500.02, 0.160, 0.314, 0.982, 18:41:00.972, 1577144460972
81, -187500.02, 84706.88, 87291.52, 104187.09, 101480.63, 90169.37, -187500.02, -187500.02, 0.000, 0.000, 0.000, 18:41:00.972, 1577144460972
82, -187500.02, 84138.42, 86580.91, 103457.30, 100892.93, 90512.18, -187500.02, -187500.02, 0.000, 0.000, 0.000, 18:41:00.972, 1577144460972
83, -187500.02, 83096.38, 85486.05, 102362.78, 99794.21, 89494.88, -187500.02, -187500.02, 0.000, 0.000, 0.000, 18:41:00.973, 1577144460973
84, -187500.02, 83414.38, 85902.06, 102792.27, 100125.66, 89167.27, -187500.02, -187500.02, 0.000, 0.000, 0.000, 18:41:00.973, 1577144460973
85, -187500.02, 84586.91, 87171.30, 104069.45, 101351.52, 89975.31, -187500.02, -187500.02, 0.000, 0.000, 0.000, 18:41:00.973, 1577144460973
86, -187500.02, 84348.26, 86816.95, 103697.09, 101115.76, 90592.53, -187500.02, -187500.02, 0.000, 0.000, 0.000, 18:41:00.973, 1577144460973
87, -187500.02, 83192.77, 85574.79, 102451.20, 99901.43, 89687.45, -187500.02, -187500.02, 0.000, 0.000, 0.000, 18:41:00.973, 1577144460973
88, -187500.02, 83275.02, 85739.48, 102628.88, 99981.00, 89154.34, -187500.02, -187500.02, 0.000, 0.000, 0.000, 18:41:00.973, 1577144460973
89, -187500.02, 84412.52, 86993.91, 103892.60, 101167.88, 89770.33, -187500.02, -187500.02, 0.000, 0.000, 0.000, 18:41:00.973, 1577144460973
90, -187500.02, 84549.92, 87052.53, 103935.56, 101330.98, 90623.98, -187500.02, -187500.02, 0.156, 0.312, 0.980, 18:41:01.450, 1577144461450
91, -187500.02, 83341.83, 85724.59, 102597.66, 100060.20, 89887.96, -187500.02, -187500.02, 0.000, 0.000, 0.000, 18:41:01.451, 1577144461451
92, -187500.02, 83147.91, 85591.22, 102474.61, 99854.60, 89170.91, -187500.02, -187500.02, 0.000, 0.000, 0.000, 18:41:01.451, 1577144461451
93, -187500.02, 84180.98, 86747.52, 103642.15, 100923.13, 89566.97, -187500.02, -187500.02, 0.000, 0.000, 0.000, 18:41:01.451, 1577144461451
94, -187500.02, 84676.97, 87205.84, 104090.75, 101451.10, 90550.16, -187500.02, -187500.02, 0.000, 0.000, 0.000, 18:41:01.451, 1577144461451
95, -187500.02, 83523.41, 85909.35, 102781.97, 100240.80, 90070.91, -187500.02, -187500.02, 0.000, 0.000, 0.000, 18:41:01.451, 1577144461451
96, -187500.02, 83079.71, 85502.66, 102384.51, 99774.80, 89201.98, -187500.02, -187500.02, 0.000, 0.000, 0.000, 18:41:01.451, 1577144461451
97, -187500.02, 83972.77, 86516.31, 103411.66, 100697.35, 89413.44, -187500.02, -187500.02, 0.000, 0.000, 0.000, 18:41:01.451, 1577144461451
98, -187500.02, 84749.90, 87298.18, 104188.72, 101524.21, 90446.84, -187500.02, -187500.02, 0.000, 0.000, 0.000, 18:41:01.451, 1577144461451
99, -187500.02, 83728.29, 86126.37, 102998.87, 100461.25, 90258.38, -187500.02, -187500.02, 0.000, 0.000, 0.000, 18:41:01.451, 1577144461451
100, -187500.02, 83056.53, 85462.77, 102341.33, 99754.06, 89304.18, -187500.02, -187500.02, 0.154, 0.310, 0.980, 18:41:01.451, 1577144461451
101, -187500.02, 83755.47, 86281.64, 103175.00, 100481.21, 89307.73, -187500.02, -187500.02, 0.000, 0.000, 0.000, 18:41:01.451, 1577144461451
102, -187500.02, 84754.52, 87327.62, 104219.77, 101532.04, 90293.73, -187500.02, -187500.02, 0.000, 0.000, 0.000, 18:41:01.451, 1577144461451
103, -187500.02, 83972.53, 86393.27, 103266.40, 100716.47, 90431.42, -187500.02, -187500.02, 0.000, 0.000, 0.000, 18:41:01.451, 1577144461451
104, -187500.02, 83071.91, 85465.98, 102342.40, 99767.74, 89424.95, -187500.02, -187500.02, 0.000, 0.000, 0.000, 18:41:01.451, 1577144461451
105, -187500.02, 83542.86, 86046.16, 102935.37, 100263.20, 89215.80, -187500.02, -187500.02, 0.000, 0.000, 0.000, 18:41:01.451, 1577144461451
106, -187500.02, 84671.18, 87252.22, 104144.64, 101435.88, 90094.88, -187500.02, -187500.02, 0.000, 0.000, 0.000, 18:41:01.451, 1577144461451
107, -187500.02, 84198.93, 86645.17, 103517.95, 100950.33, 90527.49, -187500.02, -187500.02, 0.000, 0.000, 0.000, 18:41:01.451, 1577144461451
108, -187500.02, 83130.25, 85515.49, 102386.54, 99830.17, 89565.27, -187500.02, -187500.02, 0.000, 0.000, 0.000, 18:41:01.451, 1577144461451
109, -187500.02, 83366.70, 85850.41, 102733.64, 100082.15, 89173.40, -187500.02, -187500.02, 0.000, 0.000, 0.000, 18:41:01.451, 1577144461451
110, -187500.02, 84542.72, 87129.17, 104020.09, 101309.70, 89919.34, -187500.02, -187500.02, 0.156, 0.316, 0.982, 18:41:01.451, 1577144461451
111, -187500.02, 84430.56, 86907.06, 103780.15, 101203.58, 90622.46, -187500.02, -187500.02, 0.000, 0.000, 0.000, 18:41:01.451, 1577144461451
112, -187500.02, 83242.90, 85623.30, 102490.30, 99948.44, 89741.22, -187500.02, -187500.02, 0.000, 0.000, 0.000, 18:41:01.451, 1577144461451
113, -187500.02, 83237.27, 85698.62, 102575.70, 99935.07, 89150.69, -187500.02, -187500.02, 0.000, 0.000, 0.000, 18:41:01.452, 1577144461452
114, -187500.02, 84347.52, 86928.28, 103815.45, 101093.52, 89700.90, -187500.02, -187500.02, 0.000, 0.000, 0.000, 18:41:01.452, 1577144461452
115, -187500.02, 84585.19, 87096.72, 103970.19, 101361.52, 90602.08, -187500.02, -187500.02, 0.000, 0.000, 0.000, 18:41:01.452, 1577144461452
116, -187500.02, 83398.36, 85786.28, 102650.38, 100120.19, 89958.05, -187500.02, -187500.02, 0.000, 0.000, 0.000, 18:41:01.452, 1577144461452
117, -187500.02, 83126.49, 85569.91, 102444.86, 99835.70, 89189.88, -187500.02, -187500.02, 0.000, 0.000, 0.000, 18:41:01.452, 1577144461452
118, -187500.02, 84130.47, 86696.18, 103584.22, 100872.03, 89537.09, -187500.02, -187500.02, 0.000, 0.000, 0.000, 18:41:01.452, 1577144461452
119, -187500.02, 84700.05, 87236.80, 104116.73, 101475.20, 90529.50, -187500.02, -187500.02, 0.000, 0.000, 0.000, 18:41:01.452, 1577144461452
120, -187500.02, 83580.66, 85969.50, 102835.41, 100302.66, 90137.85, -187500.02, -187500.02, 0.160, 0.308, 0.982, 18:41:01.452, 1577144461452
121, -187500.02, 83055.15, 85472.02, 102346.65, 99752.93, 89230.10, -187500.02, -187500.02, 0.000, 0.000, 0.000, 18:41:01.452, 1577144461452
122, -187500.02, 83900.33, 86439.67, 103327.59, 100622.74, 89375.19, -187500.02, -187500.02, 0.000, 0.000, 0.000, 18:41:01.452, 1577144461452
123, -187500.02, 84776.01, 87333.47, 104217.71, 101544.17, 90417.34, -187500.02, -187500.02, 0.000, 0.000, 0.000, 18:41:01.452, 1577144461452
124, -187500.02, 83814.37, 86221.23, 103088.27, 100551.69, 90328.96, -187500.02, -187500.02, 0.000, 0.000, 0.000, 18:41:01.452, 1577144461452
125, -187500.02, 83060.73, 85466.14, 102337.32, 99761.53, 89344.26, -187500.02, -187500.02, 0.000, 0.000, 0.000, 18:41:01.452, 1577144461452
126, -187500.02, 83688.55, 86208.98, 103093.38, 100406.65, 89269.11, -187500.02, -187500.02, 0.000, 0.000, 0.000, 18:41:01.452, 1577144461452
127, -187500.02, 84723.39, 87299.07, 104183.73, 101491.47, 90227.04, -187500.02, -187500.02, 0.000, 0.000, 0.000, 18:41:01.452, 1577144461452
128, -187500.02, 84035.85, 86464.73, 103330.16, 100783.81, 90465.38, -187500.02, -187500.02, 0.000, 0.000, 0.000, 18:41:01.452, 1577144461452
129, -187500.02, 83077.48, 85470.01, 102336.97, 99776.41, 89454.65, -187500.02, -187500.02, 0.000, 0.000, 0.000, 18:41:01.452, 1577144461452
130, -187500.02, 83481.95, 85976.56, 102856.20, 100190.55, 89188.38, -187500.02, -187500.02, 0.162, 0.306, 0.982, 18:41:01.452, 1577144461452
131, -187500.02, 84632.73, 87215.56, 104100.09, 101389.41, 90032.45, -187500.02, -187500.02, 0.000, 0.000, 0.000, 18:41:01.452, 1577144461452
132, -187500.02, 84257.98, 86712.65, 103579.23, 100997.56, 90538.82, -187500.02, -187500.02, 0.000, 0.000, 0.000, 18:41:01.452, 1577144461452
133, -187500.02, 83144.75, 85528.43, 102393.38, 99847.67, 89597.48, -187500.02, -187500.02, 0.000, 0.000, 0.000, 18:41:01.452, 1577144461452
134, -187500.02, 83314.94, 85788.38, 102665.18, 100023.29, 89154.38, -187500.02, -187500.02, 0.000, 0.000, 0.000, 18:41:01.452, 1577144461452
135, -187500.02, 84478.26, 87061.85, 103947.77, 101228.27, 89836.38, -187500.02, -187500.02, 0.000, 0.000, 0.000, 18:41:01.452, 1577144461452
136, -187500.02, 84478.82, 86969.31, 103839.27, 101253.20, 90616.52, -187500.02, -187500.02, 0.000, 0.000, 0.000, 18:41:01.452, 1577144461452
137, -187500.02, 83274.30, 85659.17, 102520.66, 99989.05, 89802.06, -187500.02, -187500.02, 0.000, 0.000, 0.000, 18:41:01.452, 1577144461452
138, -187500.02, 83184.16, 85638.67, 102509.25, 99886.88, 89152.68, -187500.02, -187500.02, 0.000, 0.000, 0.000, 18:41:01.452, 1577144461452
139, -187500.02, 84286.88, 86861.36, 103742.29, 101021.88, 89642.56, -187500.02, -187500.02, 0.000, 0.000, 0.000, 18:41:01.452, 1577144461452
140, -187500.02, 84632.30, 87155.44, 104024.14, 101403.52, 90579.44, -187500.02, -187500.02, 0.160, 0.310, 0.986, 18:41:01.452, 1577144461452
141, -187500.02, 83437.78, 85828.80, 102685.68, 100160.78, 90001.62, -187500.02, -187500.02, 0.000, 0.000, 0.000, 18:41:01.452, 1577144461452
142, -187500.02, 83098.06, 85535.05, 102401.01, 99800.78, 89200.18, -187500.02, -187500.02, 0.000, 0.000, 0.000, 18:41:01.452, 1577144461452
143, -187500.02, 84053.87, 86618.04, 103497.00, 100792.55, 89484.22, -187500.02, -187500.02, 0.000, 0.000, 0.000, 18:41:01.452, 1577144461452
144, -187500.02, 84720.98, 87272.63, 104143.62, 101498.71, 90495.15, -187500.02, -187500.02, 0.000, 0.000, 0.000, 18:41:01.452, 1577144461452
145, -187500.02, 83644.49, 86045.41, 102900.70, 100372.13, 90191.72, -187500.02, -187500.02, 0.000, 0.000, 0.000, 18:41:01.452, 1577144461452
146, -187500.02, 83061.52, 85480.53, 102343.41, 99757.95, 89267.57, -187500.02, -187500.02, 0.000, 0.000, 0.000, 18:41:01.452, 1577144461452
147, -187500.02, 83846.66, 86387.23, 103263.34, 100570.13, 89355.14, -187500.02, -187500.02, 0.000, 0.000, 0.000, 18:41:01.452, 1577144461452
148, -187500.02, 84751.87, 87324.35, 104196.92, 101525.87, 90358.73, -187500.02, -187500.02, 0.000, 0.000, 0.000, 18:41:01.452, 1577144461452
149, -187500.02, 83861.62, 86280.08, 103133.13, 100598.07, 90355.05, -187500.02, -187500.02, 0.000, 0.000, 0.000, 18:41:01.452, 1577144461452
150, -187500.02, 83050.27, 85453.84, 102312.05, 99745.22, 89358.94, -187500.02, -187500.02, 0.000, 0.000, 0.000, 18:41:01.452, 1577144461452
151, -187500.02, 83624.20, 86141.56, 103014.41, 100339.16, 89243.94, -187500.02, -187500.02, 0.160, 0.314, 0.984, 18:41:01.452, 1577144461452
152, -187500.02, 84706.58, 87289.44, 104165.41, 101470.99, 90174.91, -187500.02, -187500.02, 0.000, 0.000, 0.000, 18:41:01.452, 1577144461452
153, -187500.02, 84110.26, 86549.38, 103407.37, 100856.34, 90498.77, -187500.02, -187500.02, 0.000, 0.000, 0.000, 18:41:01.452, 1577144461452
154, -187500.02, 83102.62, 85491.58, 102350.40, 99797.05, 89500.88, -187500.02, -187500.02, 0.000, 0.000, 0.000, 18:41:01.452, 1577144461452
155, -187500.02, 83440.80, 85926.27, 102798.64, 100145.40, 89184.48, -187500.02, -187500.02, 0.000, 0.000, 0.000, 18:41:01.453, 1577144461453
156, -187500.02, 84604.30, 87185.41, 104064.53, 101357.67, 89983.90, -187500.02, -187500.02, 0.000, 0.000, 0.000, 18:41:01.453, 1577144461453
157, -187500.02, 84338.65, 86800.09, 103660.37, 101083.88, 90579.10, -187500.02, -187500.02, 0.000, 0.000, 0.000, 18:41:01.453, 1577144461453
158, -187500.02, 83183.22, 85564.87, 102422.48, 99879.66, 89664.20, -187500.02, -187500.02, 0.000, 0.000, 0.000, 18:41:01.453, 1577144461453
159, -187500.02, 83282.24, 85753.05, 102624.12, 99986.16, 89153.82, -187500.02, -187500.02, 0.000, 0.000, 0.000, 18:41:01.453, 1577144461453
160, -187500.02, 84427.32, 87009.41, 103889.88, 101171.70, 89772.16, -187500.02, -187500.02, 0.000, 0.000, 0.000, 18:41:01.453, 1577144461453
161, -187500.02, 84521.51, 87018.04, 103882.01, 101293.66, 90612.72, -187500.02, -187500.02, 0.158, 0.314, 0.982, 18:41:01.453, 1577144461453
162, -187500.02, 83323.37, 85707.13, 102561.18, 100034.52, 89870.80, -187500.02, -187500.02, 0.000, 0.000, 0.000, 18:41:01.453, 1577144461453
163, -187500.02, 83173.70, 85624.26, 102487.22, 99870.70, 89177.34, -187500.02, -187500.02, 0.000, 0.000, 0.000, 18:41:01.453, 1577144461453
164, -187500.02, 84228.10, 86800.74, 103673.71, 100962.91, 89608.38, -187500.02, -187500.02, 0.000, 0.000, 0.000, 18:41:01.453, 1577144461453
165, -187500.02, 84669.39, 87198.58, 104060.95, 101440.66, 90574.20, -187500.02, -187500.02, 0.000, 0.000, 0.000, 18:41:01.453, 1577144461453
166, -187500.02, 83488.55, 85882.62, 102732.95, 100208.97, 90052.00, -187500.02, -187500.02, 0.000, 0.000, 0.000, 18:41:01.453, 1577144461453
167, -187500.02, 83075.13, 85508.45, 102368.51, 99776.09, 89207.28, -187500.02, -187500.02, 0.000, 0.000, 0.000, 18:41:01.453, 1577144461453
168, -187500.02, 83989.67, 86546.29, 103420.04, 100716.35, 89431.14, -187500.02, -187500.02, 0.000, 0.000, 0.000, 18:41:01.453, 1577144461453
169, -187500.02, 84748.13, 87308.46, 104177.41, 101528.48, 90462.94, -187500.02, -187500.02, 0.000, 0.000, 0.000, 18:41:01.453, 1577144461453
170, -187500.02, 83715.05, 86120.53, 102972.27, 100450.93, 90250.89, -187500.02, -187500.02, 0.000, 0.000, 0.000, 18:41:01.453, 1577144461453
171, -187500.02, 83046.85, 85460.04, 102318.41, 99746.65, 89288.29, -187500.02, -187500.02, 0.158, 0.310, 0.986, 18:41:01.453, 1577144461453
172, -187500.02, 83761.93, 86296.59, 103168.66, 100488.81, 89304.18, -187500.02, -187500.02, 0.000, 0.000, 0.000, 18:41:01.453, 1577144461453
173, -187500.02, 84741.54, 87316.57, 104187.47, 101518.60, 90311.75, -187500.02, -187500.02, 0.000, 0.000, 0.000, 18:41:01.453, 1577144461453
174, -187500.02, 83924.27, 86345.41, 103197.89, 100671.60, 90407.98, -187500.02, -187500.02, 0.000, 0.000, 0.000, 18:41:01.453, 1577144461453
175, -187500.02, 83048.38, 85445.80, 102301.77, 99748.77, 89398.21, -187500.02, -187500.02, 0.000, 0.000, 0.000, 18:41:01.453, 1577144461453
176, -187500.02, 83539.95, 86047.35, 102916.62, 100260.65, 89210.75, -187500.02, -187500.02, 0.000, 0.000, 0.000, 18:41:01.453, 1577144461453
177, -187500.02, 84666.82, 87251.24, 104122.76, 101438.78, 90122.48, -187500.02, -187500.02, 0.000, 0.000, 0.000, 18:41:01.453, 1577144461453
178, -187500.02, 84154.67, 86599.91, 103450.30, 100910.23, 90522.62, -187500.02, -187500.02, 0.000, 0.000, 0.000, 18:41:01.453, 1577144461453
179, -187500.02, 83079.71, 85465.38, 102315.80, 99785.56, 89524.61, -187500.02, -187500.02, 0.000, 0.000, 0.000, 18:41:01.453, 1577144461453
180, -187500.02, 83351.46, 85834.92, 102697.45, 100064.17, 89143.63, -187500.02, -187500.02, 0.000, 0.000, 0.000, 18:41:01.453, 1577144461453
181, -187500.02, 84527.50, 87114.60, 103983.02, 101285.77, 89898.29, -187500.02, -187500.02, 0.162, 0.308, 0.982, 18:41:01.453, 1577144461453
182, -187500.02, 84392.05, 86867.41, 103717.57, 101151.61, 90595.08, -187500.02, -187500.02, 0.000, 0.000, 0.000, 18:41:01.453, 1577144461453
183, -187500.02, 83237.65, 85618.00, 102462.74, 99935.48, 89729.53, -187500.02, -187500.02, 0.000, 0.000, 0.000, 18:41:01.453, 1577144461453
184, -187500.02, 83245.91, 85708.05, 102564.95, 99952.84, 89156.59, -187500.02, -187500.02, 0.000, 0.000, 0.000, 18:41:01.453, 1577144461453
185, -187500.02, 84360.78, 86941.11, 103808.45, 101120.38, 89725.69, -187500.02, -187500.02, 0.000, 0.000, 0.000, 18:41:01.453, 1577144461453
186, -187500.02, 84563.80, 87069.83, 103923.09, 101344.51, 90599.53, -187500.02, -187500.02, 0.000, 0.000, 0.000, 18:41:01.453, 1577144461453
187, -187500.02, 83370.95, 85753.36, 102595.69, 100091.38, 89922.72, -187500.02, -187500.02, 0.000, 0.000, 0.000, 18:41:01.453, 1577144461453
188, -187500.02, 83143.70, 85582.73, 102433.93, 99846.20, 89181.24, -187500.02, -187500.02, 0.000, 0.000, 0.000, 18:41:01.453, 1577144461453
189, -187500.02, 84156.51, 86721.03, 103584.44, 100894.90, 89538.85, -187500.02, -187500.02, 0.000, 0.000, 0.000, 18:41:01.453, 1577144461453
190, -187500.02, 84693.62, 87228.64, 104080.98, 101472.76, 90539.09, -187500.02, -187500.02, 0.000, 0.000, 0.000, 18:41:01.453, 1577144461453
191, -187500.02, 83546.66, 85937.96, 102777.45, 100277.12, 90108.51, -187500.02, -187500.02, 0.164, 0.308, 0.982, 18:41:01.453, 1577144461453
192, -187500.02, 83065.85, 85488.22, 102337.86, 99773.52, 89225.84, -187500.02, -187500.02, 0.000, 0.000, 0.000, 18:41:01.453, 1577144461453
193, -187500.02, 83926.62, 86474.38, 103338.62, 100666.24, 89394.86, -187500.02, -187500.02, 0.000, 0.000, 0.000, 18:41:01.453, 1577144461453
194, -187500.02, 84762.35, 87322.54, 104183.11, 101547.28, 90423.91, -187500.02, -187500.02, 0.000, 0.000, 0.000, 18:41:01.454, 1577144461454
195, -187500.02, 83778.52, 86183.65, 103026.70, 100527.08, 90302.90, -187500.02, -187500.02, 0.000, 0.000, 0.000, 18:41:01.454, 1577144461454
196, -187500.02, 83047.99, 85454.07, 102303.88, 99760.28, 89327.23, -187500.02, -187500.02, 0.000, 0.000, 0.000, 18:41:01.454, 1577144461454
197, -187500.02, 83702.66, 86227.35, 103091.90, 100439.52, 89283.68, -187500.02, -187500.02, 0.000, 0.000, 0.000, 18:41:01.454, 1577144461454
198, -187500.02, 84718.07, 87293.64, 104158.21, 101502.45, 90244.80, -187500.02, -187500.02, 0.000, 0.000, 0.000, 18:41:01.454, 1577144461454
199, -187500.02, 83981.24, 86408.91, 103255.09, 100740.45, 90427.09, -187500.02, -187500.02, 0.000, 0.000, 0.000, 18:41:01.454, 1577144461454
200, -187500.02, 83053.11, 85448.34, 102298.79, 99767.99, 89431.34, -187500.02, -187500.02, 0.000, 0.000, 0.000, 18:41:01.454, 1577144461454
201, -187500.02, 83502.94, 86007.81, 102871.98, 100236.17, 89205.67, -187500.02, -187500.02, 0.162, 0.306, 0.984, 18:41:01.454, 1577144461454
202, -187500.02, 84644.45, 87236.09, 104103.85, 101430.96, 90070.84, -187500.02, -187500.02, 0.000, 0.000, 0.000, 18:41:01.454, 1577144461454
203, -187500.02, 84226.76, 86687.39, 103537.19, 101005.32, 90552.14, -187500.02, -187500.02, 0.000, 0.000, 0.000, 18:41:01.454, 1577144461454
204, -187500.02, 83131.61, 85524.55, 102374.92, 99857.06, 89598.59, -187500.02, -187500.02, 0.000, 0.000, 0.000, 18:41:01.454, 1577144461454
205, -187500.02, 83330.41, 85816.70, 102681.32, 100063.66, 89173.53, -187500.02, -187500.02, 0.000, 0.000, 0.000, 18:41:01.454, 1577144461454
206, -187500.02, 84494.42, 87086.95, 103960.75, 101272.94, 89873.01, -187500.02, -187500.02, 0.000, 0.000, 0.000, 18:41:01.454, 1577144461454
207, -187500.02, 84421.28, 86911.70, 103770.20, 101211.49, 90592.27, -187500.02, -187500.02, 0.000, 0.000, 0.000, 18:41:01.454, 1577144461454
208, -187500.02, 83245.67, 85632.75, 102485.05, 99974.97, 89776.54, -187500.02, -187500.02, 0.000, 0.000, 0.000, 18:41:01.454, 1577144461454
209, -187500.02, 83192.66, 85652.62, 102517.70, 99914.10, 89148.16, -187500.02, -187500.02, 0.000, 0.000, 0.000, 18:41:01.454, 1577144461454
210, -187500.02, 84295.60, 86873.05, 103750.63, 101058.89, 89665.85, -187500.02, -187500.02, 0.000, 0.000, 0.000, 18:41:01.930, 1577144461930
211, -187500.02, 84602.09, 87118.89, 103984.65, 101395.18, 90586.21, -187500.02, -187500.02, 0.160, 0.314, 0.982, 18:41:01.930, 1577144461930
212, -187500.02, 83407.92, 85797.91, 102653.60, 100147.84, 89977.52, -187500.02, -187500.02, 0.000, 0.000, 0.000, 18:41:01.930, 1577144461930
213, -187500.02, 83096.25, 85536.23, 102401.56, 99816.65, 89183.75, -187500.02, -187500.02, 0.000, 0.000, 0.000, 18:41:01.930, 1577144461930
214, -187500.02, 84081.20, 86645.22, 103522.48, 100827.80, 89496.59, -187500.02, -187500.02, 0.000, 0.000, 0.000, 18:41:01.930, 1577144461930
215, -187500.02, 84712.84, 87262.28, 104131.99, 101512.97, 90513.19, -187500.02, -187500.02, 0.000, 0.000, 0.000, 18:41:01.930, 1577144461930
216, -187500.02, 83606.45, 86005.69, 102860.45, 100353.52, 90169.41, -187500.02, -187500.02, 0.000, 0.000, 0.000, 18:41:01.930, 1577144461930
217, -187500.02, 83050.09, 85469.78, 102333.01, 99764.84, 89246.20, -187500.02, -187500.02, 0.000, 0.000, 0.000, 18:41:01.930, 1577144461930
218, -187500.02, 83859.02, 86402.92, 103280.66, 100606.14, 89359.66, -187500.02, -187500.02, 0.000, 0.000, 0.000, 18:41:01.930, 1577144461930
219, -187500.02, 84756.49, 87325.16, 104200.63, 101553.56, 90392.48, -187500.02, -187500.02, 0.000, 0.000, 0.000, 18:41:01.930, 1577144461930
220, -187500.02, 83843.20, 86255.06, 103113.13, 100602.38, 90362.38, -187500.02, -187500.02, 0.000, 0.000, 0.000, 18:41:01.930, 1577144461930
221, -187500.02, 83047.57, 85451.97, 102316.29, 99769.02, 89370.34, -187500.02, -187500.02, 0.158, 0.310, 0.986, 18:41:01.930, 1577144461930
222, -187500.02, 83648.63, 86167.40, 103045.77, 100387.07, 89274.56, -187500.02, -187500.02, 0.000, 0.000, 0.000, 18:41:01.930, 1577144461930
223, -187500.02, 84709.06, 87287.45, 104168.87, 101498.24, 90212.11, -187500.02, -187500.02, 0.000, 0.000, 0.000, 18:41:01.930, 1577144461930
224, -187500.02, 84066.80, 86501.05, 103364.03, 100839.42, 90499.88, -187500.02, -187500.02, 0.000, 0.000, 0.000, 18:41:01.930, 1577144461930
225, -187500.02, 83082.46, 85475.02, 102338.40, 99802.91, 89500.16, -187500.02, -187500.02, 0.000, 0.000, 0.000, 18:41:01.930, 1577144461930
226, -187500.02, 83456.70, 85949.85, 102827.34, 100186.62, 89206.08, -187500.02, -187500.02, 0.000, 0.000, 0.000, 18:41:01.930, 1577144461930
227, -187500.02, 84617.91, 87201.46, 104085.79, 101399.20, 90030.52, -187500.02, -187500.02, 0.000, 0.000, 0.000, 18:41:01.930, 1577144461930
228, -187500.02, 84298.64, 86761.09, 103628.18, 101081.96, 90592.91, -187500.02, -187500.02, 0.000, 0.000, 0.000, 18:41:01.930, 1577144461930
229, -187500.02, 83165.36, 85548.70, 102413.55, 99890.97, 89662.57, -187500.02, -187500.02, 0.000, 0.000, 0.000, 18:41:01.930, 1577144461930
230, -187500.02, 83281.19, 85752.48, 102630.96, 100011.45, 89164.05, -187500.02, -187500.02, 0.000, 0.000, 0.000, 18:41:01.930, 1577144461930
231, -187500.02, 84431.32, 87015.77, 103903.82, 101207.98, 89809.17, -187500.02, -187500.02, 0.152, 0.308, 0.988, 18:41:01.930, 1577144461930
232, -187500.02, 84485.39, 86978.32, 103850.96, 101270.63, 90600.55, -187500.02, -187500.02, 0.000, 0.000, 0.000, 18:41:01.930, 1577144461930
233, -187500.02, 83289.62, 85673.23, 102539.70, 100015.88, 89826.41, -187500.02, -187500.02, 0.000, 0.000, 0.000, 18:41:01.930, 1577144461930
234, -187500.02, 83171.33, 85625.02, 102504.23, 99903.94, 89186.50, -187500.02, -187500.02, 0.000, 0.000, 0.000, 18:41:01.930, 1577144461930
235, -187500.02, 84239.23, 86812.59, 103704.13, 101009.72, 89635.48, -187500.02, -187500.02, 0.000, 0.000, 0.000, 18:41:01.930, 1577144461930
236, -187500.02, 84648.52, 87172.00, 104052.35, 101449.13, 90595.08, -187500.02, -187500.02, 0.000, 0.000, 0.000, 18:41:01.930, 1577144461930
237, -187500.02, 83459.11, 85847.26, 102713.91, 100203.98, 90048.23, -187500.02, -187500.02, 0.000, 0.000, 0.000, 18:41:01.930, 1577144461930
238, -187500.02, 83080.67, 85514.64, 102389.49, 99805.25, 89220.20, -187500.02, -187500.02, 0.000, 0.000, 0.000, 18:41:01.930, 1577144461930
239, -187500.02, 84018.28, 86577.53, 103465.57, 100779.74, 89480.47, -187500.02, -187500.02, 0.000, 0.000, 0.000, 18:41:01.931, 1577144461931
240, -187500.02, 84718.80, 87270.39, 104151.26, 101524.28, 90487.63, -187500.02, -187500.02, 0.000, 0.000, 0.000, 18:41:01.931, 1577144461931
241, -187500.02, 83651.38, 86047.30, 102912.03, 100405.44, 90231.11, -187500.02, -187500.02, 0.156, 0.314, 0.982, 18:41:01.931, 1577144461931
242, -187500.02, 83030.78, 85441.95, 102314.39, 99749.30, 89283.50, -187500.02, -187500.02, 0.000, 0.000, 0.000, 18:41:01.931, 1577144461931
243, -187500.02, 83776.73, 86310.16, 103197.30, 100520.84, 89323.18, -187500.02, -187500.02, 0.000, 0.000, 0.000, 18:41:01.931, 1577144461931
244, -187500.02, 84735.17, 87303.63, 104190.62, 101527.81, 90334.10, -187500.02, -187500.02, 0.000, 0.000, 0.000, 18:41:01.931, 1577144461931
245, -187500.02, 83888.42, 86301.85, 103172.85, 100656.98, 90402.37, -187500.02, -187500.02, 0.000, 0.000, 0.000, 18:41:01.931, 1577144461931
246, -187500.02, 83049.60, 85443.66, 102319.38, 99774.45, 89404.25, -187500.02, -187500.02, 0.000, 0.000, 0.000, 18:41:01.931, 1577144461931
247, -187500.02, 83577.93, 86080.86, 102969.25, 100308.77, 89238.98, -187500.02, -187500.02, 0.000, 0.000, 0.000, 18:41:01.931, 1577144461931
248, -187500.02, 84677.79, 87256.16, 104147.68, 101472.85, 90154.28, -187500.02, -187500.02, 0.000, 0.000, 0.000, 18:41:01.931, 1577144461931
249, -187500.02, 84128.68, 86568.44, 103441.39, 100915.75, 90535.24, -187500.02, -187500.02, 0.000, 0.000, 0.000, 18:41:01.931, 1577144461931
250, -187500.02, 83099.52, 85484.31, 102355.30, 99826.62, 89545.42, -187500.02, -187500.02, 0.000, 0.000, 0.000, 18:41:01.931, 1577144461931
251, -187500.02, 83394.38, 85879.29, 102762.55, 100129.04, 89185.52, -187500.02, -187500.02, 0.154, 0.314, 0.976, 18:41:01.931, 1577144461931
252, -187500.02, 84558.75, 87140.33, 104029.95, 101338.07, 89948.73, -187500.02, -187500.02, 0.000, 0.000, 0.000, 18:41:01.931, 1577144461931
253, -187500.02, 84355.80, 86824.74, 103695.98, 101139.85, 90592.27, -187500.02, -187500.02, 0.000, 0.000, 0.000, 18:41:01.931, 1577144461931
254, -187500.02, 83202.58, 85583.62, 102448.79, 99928.99, 89717.44, -187500.02, -187500.02, 0.000, 0.000, 0.000, 18:41:01.931, 1577144461931
255, -187500.02, 83240.09, 85704.38, 102579.84, 99965.24, 89155.38, -187500.02, -187500.02, 0.000, 0.000, 0.000, 18:41:01.931, 1577144461931
0, -187500.02, 84378.59, 86958.68, 103844.91, 101147.66, 89748.94, -187500.02, -187500.02, 0.000, 0.000, 0.000, 18:41:01.931, 1577144461931
1, -187500.02, 84553.72, 87055.30, 103926.69, 101338.88, 90609.05, -187500.02, -187500.02, 0.000, 0.000, 0.000, 18:41:01.931, 1577144461931
2, -187500.02, 83338.09, 85721.69, 102583.69, 100071.70, 89891.13, -187500.02, -187500.02, 0.000, 0.000, 0.000, 18:41:01.931, 1577144461931
3, -187500.02, 83135.37, 85579.44, 102451.66, 99859.84, 89186.84, -187500.02, -187500.02, 0.000, 0.000, 0.000, 18:41:01.931, 1577144461931
4, -187500.02, 84186.61, 86752.62, 103637.21, 100942.42, 89596.74, -187500.02, -187500.02, 0.000, 0.000, 0.000, 18:41:01.931, 1577144461931
5, -187500.02, 84680.79, 87214.13, 104088.31, 101480.05, 90567.27, -187500.02, -187500.02, 0.156, 0.318, 0.982, 18:41:01.931, 1577144461931
6, -187500.02, 83525.78, 85917.66, 102777.66, 100272.63, 90101.35, -187500.02, -187500.02, 0.000, 0.000, 0.000, 18:41:01.931, 1577144461931
7, -187500.02, 83066.01, 85492.76, 102360.99, 99787.21, 89229.70, -187500.02, -187500.02, 0.000, 0.000, 0.000, 18:41:01.931, 1577144461931
8, -187500.02, 83947.59, 86498.99, 103381.06, 100696.21, 89415.78, -187500.02, -187500.02, 0.000, 0.000, 0.000, 18:41:01.931, 1577144461931
9, -187500.02, 84746.52, 87304.30, 104180.60, 101544.91, 90446.33, -187500.02, -187500.02, 0.000, 0.000, 0.000, 18:41:01.931, 1577144461931
10, -187500.02, 83742.46, 86144.88, 103003.83, 100499.01, 90297.78, -187500.02, -187500.02, 0.000, 0.000, 0.000, 18:41:01.931, 1577144461931
11, -187500.02, 83044.08, 85451.59, 102315.60, 99759.14, 89321.19, -187500.02, -187500.02, 0.000, 0.000, 0.000, 18:41:01.931, 1577144461931
12, -187500.02, 83735.87, 86260.41, 103137.52, 100469.50, 89299.09, -187500.02, -187500.02, 0.000, 0.000, 0.000, 18:41:01.931, 1577144461931
13, -187500.02, 84744.27, 87314.59, 104190.59, 101527.38, 90281.94, -187500.02, -187500.02, 0.000, 0.000, 0.000, 18:41:01.931, 1577144461931
14, -187500.02, 83989.45, 86411.80, 103269.30, 100749.61, 90456.39, -187500.02, -187500.02, 0.000, 0.000, 0.000, 18:41:01.932, 1577144461932
15, -187500.02, 83070.93, 85464.02, 102323.91, 99776.95, 89438.96, -187500.02, -187500.02, 0.158, 0.312, 0.980, 18:41:01.932, 1577144461932
16, -187500.02, 83524.15, 86026.61, 102900.48, 100261.25, 89223.42, -187500.02, -187500.02, 0.000, 0.000, 0.000, 18:41:01.932, 1577144461932
17, -187500.02, 84659.71, 87243.70, 104122.49, 101449.85, 90107.08, -187500.02, -187500.02, 0.000, 0.000, 0.000, 18:41:01.932, 1577144461932
18, -187500.02, 84211.34, 86661.48, 103521.85, 100990.61, 90566.67, -187500.02, -187500.02, 0.000, 0.000, 0.000, 18:41:01.932, 1577144461932
19, -187500.02, 83130.80, 85517.13, 102376.33, 99850.80, 89592.00, -187500.02, -187500.02, 0.000, 0.000, 0.000, 18:41:01.932, 1577144461932
20, -187500.02, 83362.05, 85843.73, 102715.70, 100089.30, 89185.65, -187500.02, -187500.02, 0.000, 0.000, 0.000, 18:41:01.932, 1577144461932
21, -187500.02, 84522.91, 87106.27, 103985.85, 101291.53, 89894.82, -187500.02, -187500.02, 0.000, 0.000, 0.000, 18:41:01.932, 1577144461932
22, -187500.02, 84428.75, 86908.85, 103771.68, 101212.36, 90616.83, -187500.02, -187500.02, 0.000, 0.000, 0.000, 18:41:01.932, 1577144461932
23, -187500.02, 83242.09, 85622.78, 102479.34, 99965.13, 89765.01, -187500.02, -187500.02, 0.000, 0.000, 0.000, 18:41:01.932, 1577144461932
24, -187500.02, 83219.48, 85676.06, 102544.55, 99937.15, 89169.24, -187500.02, -187500.02, 0.000, 0.000, 0.000, 18:41:01.932, 1577144461932
25, -187500.02, 84331.03, 86908.38, 103788.55, 101094.48, 89707.78, -187500.02, -187500.02, 0.164, 0.314, 0.982, 18:41:01.932, 1577144461932
26, -187500.02, 84604.91, 87118.00, 103984.18, 101395.00, 90619.20, -187500.02, -187500.02, 0.000, 0.000, 0.000, 18:41:01.932, 1577144461932
27, -187500.02, 83388.45, 85773.41, 102628.08, 100119.36, 89957.23, -187500.02, -187500.02, 0.000, 0.000, 0.000, 18:41:01.932, 1577144461932
28, -187500.02, 83117.35, 85557.85, 102421.44, 99831.41, 89191.64, -187500.02, -187500.02, 0.000, 0.000, 0.000, 18:41:01.932, 1577144461932
29, -187500.02, 84122.53, 86690.39, 103565.93, 100872.73, 89536.57, -187500.02, -187500.02, 0.000, 0.000, 0.000, 18:41:01.932, 1577144461932
30, -187500.02, 84714.59, 87260.25, 104125.33, 101501.37, 90533.34, -187500.02, -187500.02, 0.000, 0.000, 0.000, 18:41:01.932, 1577144461932
31, -187500.02, 83583.48, 85986.02, 102835.43, 100324.59, 90154.87, -187500.02, -187500.02, 0.000, 0.000, 0.000, 18:41:01.932, 1577144461932
32, -187500.02, 83049.60, 85478.05, 102333.81, 99761.27, 89243.41, -187500.02, -187500.02, 0.000, 0.000, 0.000, 18:41:01.932, 1577144461932
33, -187500.02, 83881.35, 86436.41, 103299.70, 100615.62, 89371.99, -187500.02, -187500.02, 0.000, 0.000, 0.000, 18:41:01.932, 1577144461932
34, -187500.02, 84754.08, 87339.73, 104192.83, 101547.32, 90404.35, -187500.02, -187500.02, 0.000, 0.000, 0.000, 18:41:01.932, 1577144461932
35, -187500.02, 83815.59, 86250.10, 103083.54, 100573.48, 90345.30, -187500.02, -187500.02, 0.000, 0.000, 0.000, 18:41:01.932, 1577144461932
36, -187500.02, 83060.78, 85489.14, 102326.35, 99778.02, 89363.19, -187500.02, -187500.02, 0.152, 0.306, 0.980, 18:41:01.932, 1577144461932
37, -187500.02, 83681.20, 86222.16, 103072.14, 100413.78, 89280.98, -187500.02, -187500.02, 0.000, 0.000, 0.000, 18:41:01.932, 1577144461932
38, -187500.02, 84732.84, 87337.16, 104189.08, 101525.71, 90242.57, -187500.02, -187500.02, 0.000, 0.000, 0.000, 18:41:01.933, 1577144461933
39, -187500.02, 84052.05, 86512.58, 103344.88, 100827.17, 90496.38, -187500.02, -187500.02, 0.000, 0.000, 0.000, 18:41:01.933, 1577144461933
40, -187500.02, 83083.47, 85503.27, 102336.77, 99801.45, 89477.12, -187500.02, -187500.02, 0.000, 0.000, 0.000, 18:41:01.933, 1577144461933
41, -187500.02, 83485.23, 86010.67, 102856.94, 100219.32, 89211.20, -187500.02, -187500.02, 0.000, 0.000, 0.000, 18:41:01.933, 1577144461933
42, -187500.02, 84628.73, 87242.55, 104094.40, 101415.54, 90050.13, -187500.02, -187500.02, 0.000, 0.000, 0.000, 18:41:01.933, 1577144461933
43, -187500.02, 84277.30, 86764.40, 103597.54, 101061.02, 90586.27, -187500.02, -187500.02, 0.000, 0.000, 0.000, 18:41:01.933, 1577144461933
44, -187500.02, 83157.56, 85570.39, 102399.73, 99881.54, 89635.12, -187500.02, -187500.02, 0.000, 0.000, 0.000, 18:41:01.933, 1577144461933
45, -187500.02, 83305.42, 85807.70, 102648.30, 100033.80, 89162.52, -187500.02, -187500.02, 0.000, 0.000, 0.000, 18:41:01.933, 1577144461933
46, -187500.02, 84461.27, 87074.48, 103923.25, 101231.98, 89842.70, -187500.02, -187500.02, 0.150, 0.308, 0.980, 18:41:01.933, 1577144461933
47, -187500.02, 84472.72, 86995.24, 103825.77, 101256.15, 90607.80, -187500.02, -187500.02, 0.000, 0.000, 0.000, 18:41:01.933, 1577144461933
48, -187500.02, 83277.14, 85694.87, 102516.41, 100023.12, 89828.38, -187500.02, -187500.02, 0.000, 0.000, 0.000, 18:41:01.933, 1577144461933
49, -187500.02, 83188.30, 85674.97, 102506.55, 99922.45, 89192.98, -187500.02, -187500.02, 0.000, 0.000, 0.000, 18:41:01.933, 1577144461933
50, -187500.02, 84270.79, 86881.56, 103724.14, 101042.82, 89661.18, -187500.02, -187500.02, 0.000, 0.000, 0.000, 18:41:01.933, 1577144461933
51, -187500.02, 84634.20, 87192.56, 104021.64, 101436.35, 90596.73, -187500.02, -187500.02, 0.000, 0.000, 0.000, 18:41:01.933, 1577144461933
52, -187500.02, 83443.44, 85868.42, 102684.58, 100188.90, 90021.83, -187500.02, -187500.02, 0.000, 0.000, 0.000, 18:41:01.933, 1577144461933
53, -187500.02, 83084.72, 85557.13, 102381.29, 99813.30, 89201.54, -187500.02, -187500.02, 0.000, 0.000, 0.000, 18:41:01.933, 1577144461933
54, -187500.02, 84042.58, 86639.88, 103476.30, 100808.73, 89489.09, -187500.02, -187500.02, 0.000, 0.000, 0.000, 18:41:01.933, 1577144461933
55, -187500.02, 84723.46, 87309.95, 104138.36, 101532.44, 90509.61, -187500.02, -187500.02, 0.000, 0.000, 0.000, 18:41:01.933, 1577144461933
56, -187500.02, 83648.95, 86086.04, 102898.06, 100408.55, 90221.61, -187500.02, -187500.02, 0.152, 0.306, 0.978, 18:41:01.933, 1577144461933
57, -187500.02, 83047.45, 85502.75, 102320.49, 99776.22, 89284.45, -187500.02, -187500.02, 0.000, 0.000, 0.000, 18:41:01.933, 1577144461933
58, -187500.02, 83812.06, 86387.90, 103217.54, 100563.36, 89343.54, -187500.02, -187500.02, 0.000, 0.000, 0.000, 18:41:01.933, 1577144461933
59, -187500.02, 84741.96, 87348.63, 104176.05, 101539.28, 90346.71, -187500.02, -187500.02, 0.000, 0.000, 0.000, 18:41:01.933, 1577144461933
60, -187500.02, 83878.43, 86330.34, 103139.71, 100639.76, 90376.73, -187500.02, -187500.02, 0.000, 0.000, 0.000, 18:41:01.933, 1577144461933
61, -187500.02, 83038.72, 85477.52, 102290.52, 99765.33, 89368.59, -187500.02, -187500.02, 0.000, 0.000, 0.000, 18:41:01.933, 1577144461933
62, -187500.02, 83590.63, 86144.24, 102969.50, 100340.60, 89237.73, -187500.02, -187500.02, 0.000, 0.000, 0.000, 18:41:01.933, 1577144461933
63, -187500.02, 84685.88, 87307.99, 104134.31, 101484.54, 90163.78, -187500.02, -187500.02, 0.000, 0.000, 0.000, 18:41:01.933, 1577144461933
64, -187500.02, 84114.59, 86593.38, 103399.70, 100897.24, 90509.45, -187500.02, -187500.02, 0.000, 0.000, 0.000, 18:41:01.933, 1577144461933
65, -187500.02, 83102.64, 85530.67, 102336.88, 99829.48, 89518.48, -187500.02, -187500.02, 0.000, 0.000, 0.000, 18:41:01.933, 1577144461933
66, -187500.02, 83421.45, 85951.38, 102769.49, 100166.19, 89193.05, -187500.02, -187500.02, 0.156, 0.310, 0.978, 18:41:01.933, 1577144461933
67, -187500.02, 84580.67, 87207.02, 104030.78, 101376.52, 89983.16, -187500.02, -187500.02, 0.000, 0.000, 0.000, 18:41:01.933, 1577144461933
68, -187500.02, 84329.35, 86838.55, 103644.01, 101129.41, 90591.53, -187500.02, -187500.02, 0.000, 0.000, 0.000, 18:41:01.933, 1577144461933
69, -187500.02, 83176.98, 85600.05, 102399.77, 99915.71, 89680.54, -187500.02, -187500.02, 0.000, 0.000, 0.000, 18:41:01.933, 1577144461933
70, -187500.02, 83254.84, 85760.89, 102572.33, 99988.24, 89145.82, -187500.02, -187500.02, 0.000, 0.000, 0.000, 18:41:01.933, 1577144461933
71, -187500.02, 84420.48, 87039.37, 103860.87, 101201.72, 89776.29, -187500.02, -187500.02, 0.000, 0.000, 0.000, 18:41:01.933, 1577144461933
72, -187500.02, 84547.77, 87086.15, 103891.73, 101355.95, 90625.55, -187500.02, -187500.02, 0.000, 0.000, 0.000, 18:41:01.934, 1577144461934
73, -187500.02, 83333.20, 85753.60, 102550.13, 100077.90, 89891.98, -187500.02, -187500.02, 0.000, 0.000, 0.000, 18:41:01.934, 1577144461934
